AF3,F7,F3,FC5,T7,P7,O1,O2,P8,T8,FC6,F4,F8,AF4,label,sampling_rate
4095.4236,4095.3084,4095.5547,4098.8079,4095.4896,4090.0106,4097.3293,4094.9307,4095.1322,4096.4635,4096.9292,4100.6542,4098.6265,4096.442,relax,128
4111.5735,4108.245,4114.03,4116.0658,4108.0238,4106.6908,4107.7611,4099.8198,4105.867,4109.8186,4114.3151,4112.0822,4113.81,4115.5197,relax,
4121.6578,4111.3721,4118.9992,4107.9647,4099.9384,4107.0895,4104.0516,4111.2188,4112.1741,4105.5419,4117.4122,4112.7174,4115.4801,4117.3528,relax,
4106.4584,4108.0752,4107.7544,4105.4002,4105.0003,4103.9144,4098.6925,4098.3309,4100.1206,4104.3978,4103.0001,4114.5437,4101.5235,4101.6053,relax,
4091.8808,4095.3575,4091.4051,4093.5888,4097.1018,4091.308,4086.5678,4090.1313,4095.4957,4085.6217,4090.3797,4090.3953,4088.4077,4091.7015,relax,
4084.2448,4092.8967,4085.5278,4082.2997,4084.7427,4084.2267,4092.4884,4086.4119,4087.272,4089.9871,4081.8435,4081.8733,4076.2459,4077.5918,relax,
4087.9199,4092.551,4095.4296,4091.2788,4093.3276,4093.1864,4097.3182,4096.5527,4093.6093,4088.2384,4094.9662,4092.1798,4095.7957,4090.0712,relax,
4112.1639,4101.9138,4110.0556,4103.1417,4099.2799,4096.4971,4099.7387,4106.0361,4104.2764,4104.1005,4093.1777,4106.5273,4105.5728,4102.1518,relax,
4107.2323,4108.0836,4115.542,4102.7731,4103.0836,4109.6923,4101.3612,4101.6888,4104.6362,4099.8296,4107.8733,4103.804,4111.6336,4109.7546,relax,
4108.9539,4100.4852,4104.9774,4093.8431,4097.9564,4099.5847,4104.9694,4091.2628,4102.2546,4100.8104,4105.1904,4102.3641,4099.5701,4097.7336,relax,
4077.3726,4084.7832,4082.6893,4093.1734,4084.8297,4089.1008,4082.634,4087.3281,4088.8638,4090.5697,4090.8847,4083.2795,4079.5325,4084.1968,relax,
4074.8531,4077.5376,4071.8412,4081.9617,4081.4941,4084.8704,4089.0246,4086.3654,4083.2172,4089.7537,4078.403,4073.4585,4076.0188,4078.7163,relax,
4080.9321,4084.3999,4086.4836,4081.5143,4079.1463,4087.872,4088.8367,4085.4857,4090.1587,4088.4829,4079.5858,4083.7735,4081.5379,4074.5251,relax,
4102.0455,4099.5448,4096.9139,4101.4787,4100.6619,4096.2301,4099.8029,4102.2618,4095.6896,4100.2331,4099.398,4108.959,4092.2764,4103.0148,relax,
4115.4446,4113.7885,4122.6224,4112.5014,4118.1923,4106.6332,4108.1502,4104.7848,4105.639,4109.4785,4111.4054,4115.826,4105.7691,4124.6795,relax,
4116.5928,4121.6811,4111.5315,4114.1788,4122.2667,4105.2776,4101.0744,4104.8696,4110.6464,4112.3803,4118.1701,4114.5319,4108.3005,4115.5207,relax,
4107.9921,4104.0502,4094.641,4101.4848,4106.0927,4108.7249,4101.903,4100.8935,4095.2579,4097.127,4101.8127,4104.4815,4104.5082,4101.1184,relax,
4082.5984,4085.1503,4083.2818,4091.5386,4081.1228,4089.3906,4093.2267,4097.5153,4091.0089,4094.3771,4087.3689,4084.9321,4085.5639,4093.3155,relax,
4087.2644,4086.7626,4097.6255,4085.7006,4090.3454,4089.6028,4088.5019,4098.6542,4094.3989,4082.2661,4084.2306,4086.0178,4087.9457,4077.8937,relax,
4084.1681,4085.9021,4093.1307,4093.3395,4095.5827,4091.2355,4089.6421,4086.4468,4095.631,4095.6821,4097.7243,4096.5783,4092.7647,4098.5874,relax,
4105.3949,4102.1042,4103.0628,4101.613,4093.6989,4102.5895,4102.1685,4099.7199,4099.1088,4103.849,4110.8198,4105.2981,4102.717,4103.5746,relax,
4107.6822,4101.4668,4106.5033,4105.8137,4111.0339,4106.9506,4106.356,4099.368,4105.8564,4099.0977,4106.8168,4108.6793,4103.4602,4115.9587,relax,
4097.9325,4088.0925,4097.9014,4094.1007,4095.7898,4097.6608,4097.3869,4087.6681,4091.1645,4098.8748,4100.9352,4103.3025,4102.9161,4087.4408,relax,
4082.1046,4073.3983,4086.8389,4083.4347,4080.5724,4093.8556,4089.7497,4079.6093,4086.9899,4082.2125,4082.8665,4078.5237,4086.5574,4073.3335,relax,
4074.2091,4082.9635,4071.4764,4078.3941,4082.0492,4079.4049,4086.6001,4084.3967,4078.3886,4088.2893,4080.718,4074.1159,4073.16,4069.802,relax,
4088.8807,4084.8162,4086.7582,4085.6278,4090.7581,4088.3103,4092.793,4089.0048,4092.0925,4090.982,4085.8991,4081.4813,4081.6417,4080.994,relax,
4100.3157,4106.7264,4103.4069,4108.8833,4110.3996,4101.0491,4094.0998,4098.7661,4100.6508,4095.3286,4101.6009,4104.7411,4101.4255,4101.1799,relax,
4115.1216,4122.6446,4115.7455,4110.4056,4108.6886,4113.1113,4104.7827,4109.4488,4112.2055,4113.1767,4119.3241,4114.1822,4120.0288,4114.9852,relax,
4113.9361,4117.9639,4117.2499,4111.6262,4103.7286,4109.96,4103.6301,4102.456,4105.1208,4109.4802,4103.1336,4115.4035,4113.8752,4113.1841,relax,
4104.3399,4102.1349,4097.4316,4096.6737,4101.4636,4092.451,4096.8494,4095.6557,4098.7948,4099.5275,4099.5009,4104.3962,4100.6014,4098.9322,relax,
4081.3312,4090.241,4089.0732,4093.9429,4086.7219,4090.2104,4090.656,4090.5403,4090.1463,4082.8536,4091.4396,4089.5734,4091.8755,4095.1729,relax,
4083.8007,4086.2428,4085.9896,4095.03,4082.0841,4091.389,4084.4365,4079.9935,4081.3626,4083.4819,4091.5374,4082.477,4085.4776,4080.4225,relax,
4098.4438,4091.5922,4101.2706,4092.0276,4092.9407,4096.491,4096.0988,4101.6988,4096.4816,4091.1687,4093.7587,4093.7089,4098.9002,4097.5352,relax,
4106.3349,4108.9934,4103.8335,4104.105,4103.643,4108.6002,4101.2283,4100.2193,4098.3041,4105.6642,4102.2994,4107.3222,4097.9085,4110.9852,relax,
4100.1909,4101.2671,4108.9915,4098.277,4101.7741,4102.0082,4096.9555,4106.3214,4107.7063,4094.2055,4097.819,4107.9901,4099.1643,4103.9641,relax,
4091.9888,4094.7815,4090.9399,4092.7573,4089.9942,4098.4518,4091.6634,4095.0036,4091.2358,4093.5265,4091.7038,4091.1831,4087.959,4094.6562,relax,
4081.994,4079.6699,4080.8402,4083.6226,4087.1282,4085.4161,4086.6247,4089.2317,4084.478,4079.5206,4080.3657,4070.3572,4078.6737,4077.9914,relax,
4078.8607,4077.1718,4079.396,4078.3312,4077.7728,4077.1045,4080.6378,4079.0521,4085.2849,4081.0363,4080.6147,4075.9771,4080.7429,4078.1575,relax,
4085.2301,4087.6968,4086.3352,4082.9639,4093.4602,4095.842,4091.7162,4089.7692,4095.4505,4081.3795,4090.159,4089.0397,4086.5106,4093.3777,relax,
4111.8206,4105.4605,4106.6358,4103.998,4101.5916,4097.9298,4107.7274,4106.3196,4106.3552,4099.2627,4113.8735,4114.9033,4107.2573,4104.3208,relax,
4115.5223,4117.9036,4113.4969,4114.2535,4115.0669,4103.7655,4115.9767,4114.2206,4104.8444,4105.0577,4113.2567,4113.0244,4115.1745,4108.6632,relax,
4112.509,4118.5444,4107.5635,4108.8468,4101.1928,4109.0072,4104.1591,4112.8233,4107.2816,4105.6625,4112.1401,4110.005,4105.9757,4114.6316,relax,
4096.8943,4098.0678,4098.9681,4095.2338,4098.7063,4103.9071,4092.3976,4103.7785,4095.9851,4093.9535,4106.9839,4098.0864,4102.8842,4100.8642,relax,
4078.9896,4087.4299,4084.4338,4082.4024,4082.3288,4090.2364,4093.0113,4092.2129,4088.6039,4086.2216,4083.8222,4084.3144,4082.8144,4084.8989,relax,
4087.0795,4084.6466,4086.9491,4085.8955,4090.3316,4092.731,4092.1214,4093.2975,4084.0946,4088.8347,4090.0438,4090.442,4081.8385,4087.8077,relax,
4103.3127,4097.4741,4097.909,4099.7915,4098.5802,4100.1908,4097.5829,4097.9032,4094.3624,4096.91,4103.0021,4097.4714,4097.5143,4096.521,relax,
4110.0912,4102.2107,4109.7091,4101.0061,4098.7721,4103.3892,4102.2108,4102.8803,4106.8156,4101.3532,4106.5259,4102.4278,4110.666,4109.4723,relax,
4104.6737,4102.4958,4098.863,4099.9126,4102.1848,4099.8398,4099.8893,4093.9551,4100.6409,4097.4099,4096.8887,4101.3866,4094.3183,4105.3219,relax,
4090.8143,4088.2238,4084.1186,4085.3435,4089.8955,4081.1488,4092.2532,4094.189,4089.5962,4088.5224,4089.8529,4089.4963,4092.8141,4087.4798,relax,
4071.6203,4075.1288,4076.8368,4084.9283,4080.8817,4078.8175,4081.2768,4076.3719,4084.3468,4076.7175,4073.7694,4068.2049,4072.5019,4076.653,relax,
4070.4076,4071.0961,4077.9938,4078.3577,4084.7067,4086.7541,4085.3856,4080.2285,4083.2966,4084.979,4077.3905,4071.5309,4082.5051,4073.992,relax,
4090.2371,4092.433,4096.326,4093.7537,4092.0265,4096.2529,4102.4426,4099.4056,4096.2159,4088.8703,4107.7075,4087.4095,4090.8819,4089.0745,relax,
4117.6929,4111.0441,4104.262,4109.2186,4107.9063,4103.8373,4099.0156,4100.9963,4103.3638,4105.8096,4106.0687,4112.9114,4105.5633,4104.2598,relax,
4116.2334,4121.8036,4115.0431,4123.916,4112.8082,4105.2569,4104.7222,4109.0328,4105.204,4120.3405,4110.5892,4120.0595,4122.2486,4118.7542,relax,
4107.1006,4108.1817,4111.3262,4111.5703,4105.8807,4099.4495,4104.013,4101.1503,4096.3175,4102.8636,4102.3374,4112.2247,4117.0506,4118.5191,relax,
4093.0346,4093.5386,4098.1364,4099.7071,4093.8946,4095.0259,4104.478,4095.2205,4093.6552,4096.0492,4097.7808,4091.2947,4094.4145,4090.662,relax,
4084.6774,4094.5233,4089.5741,4087.4622,4085.7334,4088.6286,4094.8939,4088.4443,4095.6759,4083.9713,4086.6721,4093.5782,4078.9842,4090.5441,relax,
4082.0368,4089.8689,4089.2767,4094.051,4079.1849,4084.3941,4090.3259,4092.7376,4088.4925,4090.9196,4086.0091,4088.3618,4086.8421,4090.4184,relax,
4102.8622,4105.7238,4097.5479,4098.3572,4099.0943,4097.5422,4098.151,4092.1103,4100.2089,4095.2426,4095.8013,4093.8211,4104.6361,4099.974,relax,
4110.9347,4106.1856,4098.6964,4099.9346,4105.6473,4099.1393,4097.0137,4100.6576,4101.4942,4098.5681,4102.9648,4103.5959,4094.7364,4108.3474,relax,
4095.8745,4103.9634,4094.2699,4092.1776,4102.7473,4091.5318,4095.0777,4100.0118,4096.5534,4091.3749,4099.2482,4098.0931,4103.8811,4101.4746,relax,
4095.7657,4078.5245,4084.5263,4081.8317,4092.6976,4091.8611,4092.58,4086.4546,4085.5931,4079.9599,4092.9363,4086.6459,4084.0647,4087.3569,relax,
4076.2046,4079.8379,4068.5307,4074.9054,4082.1904,4083.7423,4087.9734,4080.11,4082.8294,4090.23,4080.5284,4078.5071,4075.8601,4076.2715,relax,
4085.2758,4080.6392,4084.3909,4078.1473,4086.8787,4088.8528,4083.6631,4091.0636,4082.5349,4081.2973,4081.6431,4087.223,4081.4492,4081.803,relax,
4093.0728,4096.31,4091.2938,4093.7156,4099.3426,4095.8464,4101.8052,4095.1903,4095.2083,4101.1067,4093.4055,4089.9209,4101.2051,4097.6568,relax,
4105.2605,4111.9488,4110.8724,4117.3164,4104.5536,4104.4297,4101.6775,4101.1028,4103.9508,4101.7259,4106.2122,4106.0612,4105.7816,4107.6826,relax,
4116.7325,4113.3443,4112.0858,4116.1668,4110.4106,4107.9624,4106.009,4114.2364,4110.6495,4112.5045,4103.9095,4114.3768,4107.395,4117.1123,relax,
4110.1162,4104.411,4109.6876,4102.0074,4106.3819,4097.3594,4101.5172,4104.2432,4105.7175,4103.5697,4113.8573,4105.9555,4105.3042,4097.585,relax,
4100.5376,4092.2904,4088.9608,4099.2531,4099.3176,4094.9104,4088.9405,4096.356,4091.9915,4089.6925,4098.1429,4085.1345,4096.0351,4095.2992,relax,
4094.5602,4088.8141,4078.8939,4084.9404,4090.0866,4091.6359,4094.9084,4083.1465,4088.8939,4093.7074,4094.4608,4094.5717,4085.9525,4090.7465,relax,
4098.6041,4097.0586,4094.9914,4095.917,4090.1251,4087.6653,4097.7251,4092.4055,4093.3418,4090.9697,4091.0341,4093.0276,4088.1789,4092.0312,relax,
4103.0397,4101.0194,4098.5965,4103.9909,4107.366,4097.2283,4104.0867,4102.7059,4089.0203,4096.8307,4098.301,4104.6981,4102.0828,4103.9531,relax,
4107.5773,4100.3526,4101.3234,4098.3342,4101.0995,4100.9429,4101.3815,4097.7875,4105.0454,4105.449,4109.4118,4107.1548,4104.6903,4107.7219,relax,
4097.8799,4092.9007,4100.6431,4102.4268,4103.55,4095.8054,4097.0063,4097.3747,4095.6543,4098.1193,4095.068,4094.7105,4102.5439,4096.0997,relax,
4080.5252,4085.6743,4082.1179,4084.5722,4085.6703,4081.6726,4087.6898,4083.2662,4087.3949,4081.1988,4087.0725,4084.5135,4083.268,4079.8566,relax,
4074.4867,4067.7429,4070.2885,4076.8623,4082.5468,4081.7753,4079.9287,4084.481,4080.2781,4076.8914,4078.7752,4073.8359,4080.3889,4075.4836,relax,
4083.9678,4084.1123,4078.846,4080.2808,4080.534,4098.5335,4083.8973,4087.3758,4085.5759,4085.2942,4081.6871,4074.7534,4078.8328,4075.4664,relax,
4099.5452,4096.8292,4096.9794,4100.1053,4096.2623,4102.1597,4096.5625,4099.0078,4093.1302,4101.2209,4097.6211,4101.3631,4100.886,4099.3585,relax,
4116.9658,4112.1433,4119.8728,4115.814,4110.7914,4103.3371,4102.0527,4103.7945,4107.0776,4110.6535,4108.4907,4119.1967,4113.6989,4108.0449,relax,
4116.0369,4104.9648,4113.1762,4111.354,4107.5988,4107.8619,4105.8314,4105.0329,4115.1729,4114.9,4108.9832,4121.1987,4108.8201,4114.6797,relax,
4112.257,4095.9793,4107.6429,4099.111,4101.924,4101.3729,4108.0701,4098.0388,4101.8177,4105.0081,4103.1179,4102.0555,4104.7007,4106.5303,relax,
4095.5771,4088.7437,4090.5611,4094.1244,4092.7975,4092.8834,4093.8732,4091.1579,4090.4257,4095.2291,4088.4523,4097.0191,4093.3852,4086.9347,relax,
4088.4654,4089.0424,4091.0753,4093.7021,4088.9877,4087.9689,4089.0694,4087.569,4087.8142,4091.5913,4089.1277,4086.0612,4085.4203,4088.7249,relax,
4091.978,4090.0657,4093.539,4093.3296,4090.4299,4098.0994,4098.3359,4095.1155,4095.3148,4096.8193,4094.2638,4097.7108,4100.8503,4094.3064,relax,
4104.7377,4105.6333,4101.0664,4097.0681,4104.0891,4093.911,4106.7832,4103.1096,4100.9368,4100.6695,4108.5868,4098.6336,4097.4987,4100.5841,relax,
4102.0464,4098.2165,4103.1416,4102.2187,4097.2845,4106.6684,4094.1204,4094.5818,4101.7606,4099.71,4103.3458,4100.0502,4098.109,4100.5114,relax,
4088.9069,4094.2643,4090.0702,4095.5588,4095.5627,4097.5472,4097.3364,4096.8709,4096.4642,4091.1437,4091.4655,4084.6695,4093.3313,4088.9462,relax,
4079.0313,4081.764,4073.5027,4077.0847,4082.7147,4082.7847,4087.0091,4081.7194,4085.0438,4077.3581,4072.5197,4081.7778,4074.4329,4075.1855,relax,
4067.5603,4070.3267,4073.4559,4076.1433,4085.3574,4084.1359,4083.115,4087.1902,4086.8041,4083.0722,4076.1585,4079.1258,4083.0363,4075.8719,relax,
4091.5215,4089.5325,4088.7591,4082.3903,4084.1466,4088.8653,4083.3103,4087.6163,4092.5326,4085.9402,4088.8838,4079.9587,4083.8515,4088.5325,relax,
4104.7406,4104.1189,4110.093,4107.5125,4097.5528,4106.0155,4097.6504,4100.0411,4100.8048,4105.3524,4097.8082,4105.0815,4105.0539,4107.1526,relax,
4116.8456,4119.0983,4113.106,4117.9379,4111.2887,4103.4119,4108.909,4107.9945,4107.5897,4106.9348,4112.3889,4110.1835,4121.8476,4113.174,relax,
4113.9964,4118.7442,4117.3304,4115.3942,4115.2774,4107.1364,4102.5476,4110.1107,4111.5701,4107.903,4107.4509,4119.9469,4116.468,4111.1477,relax,
4106.9097,4097.0911,4101.2361,4097.7386,4098.4342,4097.3407,4097.5975,4102.9478,4101.8523,4103.5004,4106.6012,4101.6758,4103.1746,4105.9424,relax,
4097.9096,4095.269,4097.0022,4096.142,4097.0819,4085.9109,4096.9664,4094.2947,4093.2664,4090.7439,4090.365,4093.1407,4095.0326,4085.0915,relax,
4089.5008,4087.2702,4085.4149,4091.6732,4089.9673,4088.9409,4089.0901,4093.2919,4091.5369,4086.9156,4086.7387,4088.4881,4091.1335,4084.4295,relax,
4097.9524,4092.704,4106.911,4092.236,4092.8395,4096.776,4092.3905,4099.3105,4103.2057,4094.4495,4096.6911,4093.929,4095.9999,4101.7269,relax,
4106.8376,4098.7725,4108.8634,4106.4568,4102.5923,4097.7195,4100.0384,4096.5937,4102.2268,4099.3809,4092.8687,4106.3846,4103.1552,4107.5746,relax,
4100.0659,4100.8112,4104.7031,4101.2397,4100.1028,4111.6239,4097.7215,4099.0743,4105.7025,4095.7308,4095.5245,4094.5135,4102.192,4103.1131,relax,
4090.8388,4083.4339,4092.5465,4094.2874,4090.4094,4091.254,4094.4763,4093.2425,4093.6916,4086.4543,4088.7998,4083.6732,4091.3732,4089.9937,relax,
4074.8232,4078.8995,4070.655,4082.8065,4080.8308,4084.0473,4089.6551,4082.1676,4088.32,4083.1961,4079.4876,4079.1052,4072.7242,4077.5949,relax,
4074.6323,4081.125,4075.2481,4077.2557,4083.6457,4082.7943,4080.065,4083.985,4088.1023,4081.7948,4075.2271,4078.9791,4069.5661,4065.9052,relax,
4088.1419,4089.8232,4089.6674,4086.1557,4090.3794,4085.7002,4092.8007,4085.4611,4090.6981,4092.0277,4082.7003,4086.6958,4092.2521,4094.3544,relax,
4101.44,4107.4408,4101.5956,4099.7836,4109.716,4105.5462,4098.7403,4102.8332,4105.4413,4104.0569,4114.1538,4108.9625,4094.1092,4106.295,relax,
4115.7514,4115.1574,4116.9357,4111.5536,4106.1869,4115.0722,4110.1922,4105.1198,4112.3372,4113.2272,4119.2274,4112.6606,4119.0935,4116.2665,relax,
4119.6455,4111.9725,4104.4162,4111.3617,4101.0395,4106.5466,4105.6604,4104.2879,4101.4675,4103.7133,4107.8419,4112.5108,4117.8963,4117.8616,relax,
4099.7267,4106.0371,4095.694,4103.2325,4098.893,4100.3146,4101.4739,4096.2017,4102.5739,4099.5567,4110.1396,4099.9492,4106.0183,4104.2038,relax,
4085.8831,4096.6726,4086.7716,4082.7357,4095.9442,4097.0236,4093.3895,4092.1373,4099.0825,4095.3784,4089.0403,4093.9394,4086.2569,4088.3438,relax,
4085.9302,4082.0385,4085.8947,4096.1971,4087.8549,4090.2807,4088.3061,4096.4125,4092.4856,4094.2092,4090.885,4085.9198,4086.9428,4093.4837,relax,
4097.4634,4100.5875,4084.9072,4101.7948,4095.1077,4105.7072,4094.8373,4096.9934,4099.6573,4093.5803,4100.8454,4094.9767,4102.6463,4100.8658,relax,
4104.8792,4099.1722,4101.5026,4102.7169,4092.2805,4097.931,4103.3385,4094.5135,4105.2539,4097.9006,4102.8103,4097.7542,4104.0065,4104.7475,relax,
4102.2384,4102.906,4102.5716,4098.19,4092.1788,4102.3108,4091.6638,4095.1255,4099.9642,4098.8577,4103.7266,4097.5413,4090.7295,4096.5919,relax,
4084.9775,4084.2851,4090.8686,4085.6345,4082.7566,4090.8359,4085.3155,4096.7058,4090.0491,4082.8869,4090.9426,4094.6957,4077.6713,4087.8935,relax,
4075.6381,4077.0805,4076.8592,4080.1292,4078.9573,4088.2652,4079.007,4092.2393,4088.732,4076.9848,4078.14,4081.1653,4074.4138,4073.0524,relax,
4074.6171,4083.2693,4075.3777,4080.142,4085.5059,4083.3055,4082.2521,4080.3516,4078.0629,4078.6258,4073.2991,4074.9009,4079.8002,4076.4429,relax,
4088.7489,4088.4567,4088.3975,4087.2928,4088.532,4096.4907,4088.3304,4094.0181,4091.1611,4103.1873,4085.6566,4093.1442,4091.1938,4088.9709,relax,
4111.8743,4109.4822,4105.1688,4109.3959,4106.9093,4110.006,4101.1591,4109.4808,4103.9808,4097.4486,4109.7832,4109.118,4105.3305,4114.3465,relax,
4117.2682,4120.4437,4116.9715,4117.525,4113.5369,4111.7855,4103.9123,4111.7193,4109.9798,4118.828,4116.4384,4120.3068,4113.3165,4117.5301,relax,
4113.5792,4106.4473,4107.1358,4109.3195,4106.6916,4107.1237,4109.4084,4103.3386,4109.0389,4106.4245,4108.9778,4112.8452,4102.8583,4113.4577,relax,
4097.1538,4095.5426,4091.8623,4097.1939,4090.8626,4101.7046,4096.9703,4091.1993,4095.53,4101.3922,4096.5859,4098.2854,4097.7853,4099.1937,relax,
4083.7011,4090.9783,4088.7077,4103.4152,4091.628,4090.8776,4097.094,4092.5159,4093.7134,4088.9836,4097.821,4088.4294,4092.6615,4095.0296,relax,
4090.5203,4092.2491,4094.4253,4095.3214,4088.9121,4094.1689,4090.0025,4090.8025,4090.8494,4098.1364,4098.977,4102.5011,4092.0235,4088.3727,relax,
4095.0922,4105.0436,4092.579,4097.1082,4095.6366,4104.7821,4093.4911,4101.9511,4103.0355,4097.2338,4100.2381,4092.5776,4098.2609,4098.11,relax,
4091.584,4102.8556,4102.8508,4093.9484,4094.1284,4096.5442,4096.9525,4097.8437,4095.7089,4095.7461,4101.9479,4099.5291,4100.7668,4100.9836,relax,
4096.294,4094.0322,4098.0341,4095.1841,4098.5738,4100.0674,4089.36,4098.8899,4102.2104,4091.1276,4094.6446,4093.1591,4096.4127,4096.5451,relax,
4078.3234,4088.0508,4078.7738,4083.4472,4090.4948,4094.8141,4086.1497,4091.3295,4087.8805,4080.0706,4080.1797,4077.3815,4080.7873,4079.3335,relax,
4073.0241,4080.7936,4076.4492,4088.1421,4080.2502,4085.3044,4085.652,4090.0207,4080.6325,4084.6049,4084.0461,4071.8761,4075.3833,4074.9295,relax,
4076.9263,4077.2446,4087.3831,4081.2137,4091.8422,4083.5655,4086.1576,4090.1745,4084.7751,4081.3104,4079.2527,4081.1428,4078.0811,4079.0176,relax,
4086.9709,4093.7675,4095.2788,4093.9494,4092.0257,4092.466,4096.2821,4101.9482,4090.4063,4094.895,4099.9082,4097.3378,4095.625,4094.1971,relax,
4113.3688,4110.8336,4103.1846,4106.9894,4099.2837,4111.5536,4108.2948,4101.8512,4109.6089,4116.8766,4107.3603,4117.1275,4112.6878,4112.3689,relax,
4114.6821,4114.1093,4115.6776,4105.2215,4112.9095,4108.5765,4109.852,4106.3381,4121.8565,4104.1585,4110.7523,4120.0781,4125.7669,4115.1361,relax,
4118.5621,4105.7477,4115.1991,4108.4978,4114.6769,4112.2751,4101.3366,4115.6703,4100.6505,4104.5025,4115.4278,4107.0865,4106.8504,4111.7677,relax,
4099.9267,4099.4114,4094.9646,4098.4809,4099.9044,4103.286,4098.4133,4092.0888,4097.3837,4094.8723,4102.9695,4091.2457,4100.1016,4093.8551,relax,
4095.8788,4094.5003,4092.0846,4093.8522,4091.3184,4095.5774,4093.0926,4096.2159,4093.1086,4082.7412,4089.7778,4097.2773,4097.2259,4091.2088,relax,
4092.8194,4092.3038,4096.0599,4096.175,4090.3707,4097.0407,4099.5398,4090.7888,4093.6468,4096.1413,4096.7499,4091.8556,4091.53,4091.468,relax,
4101.3003,4101.0247,4099.381,4093.5506,4094.0461,4100.8029,4093.0705,4098.8603,4096.8124,4095.9971,4099.1143,4106.1641,4100.4635,4098.5767,relax,
4094.429,4101.8527,4104.5235,4101.8875,4103.4302,4100.4999,4093.0346,4098.0679,4100.6929,4101.6504,4097.4857,4099.7232,4101.2672,4105.4076,relax,
4095.0824,4094.2394,4093.0415,4087.9481,4088.4355,4092.6695,4097.5983,4095.0134,4095.2813,4086.8331,4086.2026,4095.9361,4091.5156,4085.8067,relax,
4081.6775,4081.3232,4091.3828,4086.7191,4085.9621,4084.6849,4087.6466,4086.3068,4079.5341,4088.2854,4082.8185,4068.5581,4077.7489,4074.8339,relax,
4076.7814,4075.4587,4080.6588,4071.1202,4076.8859,4086.3831,4081.3452,4079.7315,4080.008,4078.1497,4079.6436,4079.1819,4069.2872,4071.6947,relax,
4081.6579,4083.6576,4086.0859,4084.9602,4084.4654,4082.913,4081.2137,4087.0281,4087.4182,4090.4715,4082.9697,4092.0477,4083.0229,4079.6676,relax,
4101.3932,4095.5241,4100.3968,4090.8403,4101.1817,4098.5892,4098.8551,4098.6321,4093.2275,4094.8829,4105.3624,4101.5396,4097.0173,4101.5552,relax,
4117.1534,4120.9977,4118.4021,4113.2627,4106.6977,4114.8483,4105.7455,4102.6697,4102.8325,4105.0448,4110.1617,4117.0223,4116.8325,4120.1268,relax,
4119.2274,4119.2276,4125.8435,4117.7335,4116.8854,4103.5267,4104.7928,4104.7556,4098.8611,4110.7686,4119.6622,4114.665,4116.6834,4115.1993,relax,
4107.3143,4108.8287,4103.4356,4111.3211,4096.825,4105.2577,4100.9403,4108.8628,4107.0161,4096.1634,4096.9354,4104.2133,4105.6786,4108.5252,relax,
4096.9965,4099.4648,4091.3415,4089.4982,4097.5702,4095.0814,4096.0418,4093.888,4095.8325,4102.5064,4090.2073,4091.9034,4099.3369,4103.1452,relax,
4090.5566,4086.8828,4083.7444,4093.3455,4088.0453,4101.9298,4102.9636,4094.5024,4095.1694,4092.571,4096.8705,4091.7366,4092.1871,4096.8208,relax,
4097.2832,4103.449,4088.3289,4092.8004,4091.6026,4098.6342,4093.3904,4097.7741,4090.5911,4094.8408,4104.2107,4101.4296,4087.4109,4096.2368,relax,
4103.3184,4097.5578,4095.2825,4101.8584,4098.9716,4100.618,4097.4546,4107.4114,4094.7525,4096.5843,4101.27,4102.619,4094.0166,4105.2023,relax,
4092.3935,4097.9845,4096.8198,4094.9503,4101.9576,4087.9474,4094.2344,4093.5465,4100.8352,4103.6263,4100.8827,4103.629,4089.0606,4098.8804,relax,
4082.0875,4087.1254,4089.2688,4089.6742,4096.1396,4083.0572,4088.2993,4085.7197,4084.4166,4094.6597,4090.0254,4094.5165,4093.3661,4087.8922,relax,
4071.9451,4082.2119,4074.6713,4075.0612,4078.4855,4084.3816,4090.5704,4085.7187,4088.7919,4083.4525,4078.1531,4088.3224,4085.529,4076.6112,relax,
4070.1912,4069.7815,4076.9239,4076.994,4083.4808,4083.8042,4086.0555,4088.8793,4083.7689,4078.719,4074.9338,4077.6509,4071.9303,4076.3934,relax,
4087.7773,4086.0745,4082.6812,4080.0311,4084.4133,4082.8486,4090.3454,4088.4695,4085.6697,4092.3996,4087.6538,4085.9973,4088.4825,4089.0664,relax,
4097.1482,4105.4791,4095.719,4098.8701,4104.8867,4103.3006,4102.5899,4100.6593,4106.1876,4094.6749,4100.827,4103.1442,4110.7935,4107.6657,relax,
4121.3714,4111.6261,4124.5189,4114.8614,4105.5556,4118.112,4101.3255,4103.5584,4107.7946,4105.6576,4115.083,4116.6273,4115.1256,4124.7929,relax,
4111.2251,4120.6152,4112.7214,4119.2574,4117.5479,4118.2628,4106.5536,4102.6626,4110.3683,4109.7135,4106.3573,4118.9622,4111.4589,4123.529,relax,
4111.2482,4104.8957,4106.6212,4104.1397,4101.4584,4115.2258,4098.1767,4102.1429,4106.7984,4101.7507,4102.5958,4101.1601,4110.7892,4110.2355,relax,
4097.8704,4089.9566,4098.0057,4097.1338,4094.6418,4090.4874,4095.7684,4092.5118,4096.3145,4096.2474,4094.6399,4099.5195,4095.7276,4098.107,relax,
4093.8538,4096.6712,4088.6295,4091.5629,4097.2433,4094.3222,4098.5169,4096.9946,4091.9294,4097.0773,4091.9142,4096.3122,4100.0536,4096.5465,relax,
4105.158,4089.7937,4093.8065,4094.9346,4094.3988,4097.4898,4094.5276,4100.4244,4099.939,4097.6539,4091.9511,4098.1895,4098.6972,4097.4155,relax,
4099.8289,4104.8651,4097.2186,4097.5003,4101.0419,4100.3485,4101.339,4096.7926,4092.9665,4093.4233,4097.2364,4102.5818,4102.4329,4092.4452,relax,
4097.8382,4095.3894,4091.5579,4104.5252,4096.8655,4099.1312,4106.1154,4093.5209,4094.2344,4101.7657,4090.5314,4096.0222,4095.9231,4099.5833,relax,
4085.8968,4082.0295,4089.1022,4090.0008,4084.2921,4086.2139,4087.7999,4085.3057,4093.2238,4087.2008,4085.5088,4081.0622,4084.104,4090.215,relax,
4077.0923,4070.2577,4071.8924,4081.0217,4079.991,4080.6465,4081.1696,4079.2873,4083.2406,4080.4624,4083.0408,4075.5844,4072.8666,4076.8744,relax,
4080.2403,4074.4501,4069.7369,4077.1687,4077.068,4089.8799,4079.454,4083.6942,4089.2075,4085.9525,4077.0299,4073.415,4076.667,4073.8951,relax,
4094.4911,4088.7862,4083.7052,4093.9475,4095.3497,4090.5961,4095.1914,4092.3079,4086.6761,4090.8792,4085.4257,4086.5685,4085.6493,4089.8369,relax,
4107.72,4100.3785,4102.4167,4104.7685,4104.8809,4102.8734,4092.8793,4106.8541,4109.6737,4109.3586,4106.9557,4108.7841,4103.0404,4107.7284,relax,
4113.8849,4116.2056,4110.896,4116.2667,4108.9225,4112.5127,4108.3821,4105.8136,4112.8177,4105.6471,4112.8665,4114.4646,4118.6944,4118.1053,relax,
4117.7069,4116.2535,4105.5922,4108.7962,4109.6649,4112.426,4109.0163,4111.969,4107.4896,4109.6039,4110.5023,4113.234,4110.8298,4114.4537,relax,
4104.8753,4101.8745,4104.9725,4096.4352,4103.8795,4102.4921,4102.7962,4099.1573,4099.7494,4106.0972,4103.0917,4112.8124,4098.8562,4104.6477,relax,
4090.9378,4092.3666,4092.3315,4093.6349,4098.7776,4091.0928,4098.1526,4089.949,4094.0463,4100.9255,4097.406,4096.5806,4098.034,4097.7512,relax,
4095.6104,4099.0612,4089.1767,4093.3957,4096.692,4097.2576,4096.7234,4099.7173,4092.255,4088.7441,4098.7682,4093.3273,4091.2518,4093.2414,relax,
4095.1699,4100.8159,4100.3877,4097.9661,4098.7388,4096.6698,4100.5735,4087.0142,4091.8666,4096.4156,4095.0653,4093.025,4099.271,4092.9854,relax,
4099.7202,4099.0058,4098.8535,4094.9639,4097.0518,4102.6182,4099.6565,4101.3337,4097.3901,4091.0154,4096.4147,4098.02,4103.7147,4103.3946,relax,
4094.5576,4089.8091,4093.6234,4092.4397,4093.0152,4089.1808,4096.2219,4094.2469,4097.3325,4088.1428,4088.9787,4107.6947,4089.715,4094.0086,relax,
4082.9073,4079.0088,4089.2542,4083.8625,4087.0979,4094.3673,4085.1172,4086.3307,4085.7117,4081.0094,4085.2284,4084.236,4083.6708,4083.7796,relax,
4076.4873,4077.1365,4073.897,4082.5014,4078.5092,4087.8002,4083.281,4087.1121,4089.521,4072.2366,4076.8507,4073.2469,4082.6113,4071.3974,relax,
4087.7162,4072.9925,4079.7341,4079.0949,4085.7324,4082.2195,4084.2119,4078.7247,4084.9128,4077.7204,4075.4014,4078.6836,4078.6187,4080.9085,relax,
4086.8243,4094.3725,4093.8279,4091.78,4090.3771,4093.4257,4097.5791,4092.5481,4097.1313,4092.4964,4099.8887,4092.6451,4091.9863,4085.7936,relax,
4104.333,4109.8818,4108.0085,4108.3584,4102.2481,4103.8232,4100.8069,4104.4824,4103.5523,4112.4452,4104.481,4113.3935,4104.1386,4108.1803,relax,
4115.7522,4121.3827,4119.0169,4115.0434,4111.7336,4105.5335,4113.6332,4113.5797,4109.7338,4110.8488,4117.0912,4116.5679,4115.5435,4117.1471,relax,
4113.917,4111.0802,4116.6759,4110.1272,4106.6389,4105.073,4100.0383,4112.277,4109.6147,4111.8184,4109.3208,4119.5853,4113.5653,4121.1111,relax,
4104.0327,4102.9372,4101.3275,4102.7789,4102.0751,4106.8225,4106.3637,4100.5646,4105.7279,4090.3045,4100.5878,4104.4381,4106.6643,4105.7786,relax,
4094.9856,4093.4587,4092.074,4102.9757,4099.9832,4100.757,4095.6315,4093.4512,4097.7447,4095.3958,4094.8556,4095.1736,4092.7728,4091.7242,relax,
4093.0648,4088.7286,4096.5846,4097.7817,4091.6639,4087.5109,4096.5522,4095.9316,4094.9027,4089.4043,4086.7566,4101.0379,4093.4046,4096.052,relax,
4097.1207,4098.8895,4092.1784,4095.3402,4091.4769,4092.4936,4093.8939,4089.5038,4094.9975,4094.0548,4092.3781,4096.7601,4097.1899,4094.0559,relax,
4105.5158,4100.1646,4101.8371,4095.8608,4100.5138,4099.943,4092.6893,4094.0345,4108.5416,4095.2946,4099.1217,4096.492,4100.6173,4093.4895,relax,
4085.7891,4095.0904,4091.0996,4081.1377,4092.1322,4091.5583,4095.624,4094.0656,4093.6549,4092.3884,4092.2101,4085.6949,4087.2934,4086.401,relax,
4073.0138,4083.646,4084.0985,4084.3587,4082.3172,4083.2785,4085.0773,4091.2884,4087.5335,4091.6778,4078.0244,4078.8856,4075.4503,4072.7094,relax,
4072.0026,4074.086,4072.4425,4071.16,4081.8262,4080.8387,4087.5038,4086.0463,4076.7272,4082.6219,4074.9035,4080.6238,4075.3105,4070.6096,relax,
4077.6448,4075.2748,4085.7071,4091.0942,4078.3742,4084.9554,4086.8593,4084.9238,4090.8327,4090.2832,4081.6354,4088.8944,4081.4095,4078.3033,relax,
4097.1192,4093.0159,4101.8125,4098.4665,4094.5802,4095.2579,4092.3689,4097.05,4090.8254,4096.0127,4093.9312,4098.2682,4100.1703,4099.1478,relax,
4112.2199,4107.8664,4110.1747,4109.3016,4108.6462,4103.7534,4100.8202,4105.383,4111.4613,4114.1838,4112.5409,4107.4123,4116.3393,4109.3275,relax,
4116.3121,4118.2975,4112.0015,4117.9222,4110.7579,4111.6331,4104.8714,4111.5508,4112.0891,4109.5191,4118.4966,4106.8817,4118.0363,4118.9642,relax,
4110.6874,4112.4322,4114.4373,4107.3461,4106.9571,4106.5548,4106.8626,4110.1982,4104.8647,4112.7028,4105.0771,4113.6412,4104.8449,4114.1546,relax,
4105.6606,4110.0509,4102.4273,4098.424,4104.4398,4100.2276,4099.9146,4103.1893,4104.434,4093.4053,4101.6235,4102.1643,4097.6807,4096.276,relax,
4094.9576,4093.4631,4092.3882,4094.8305,4094.0999,4095.6054,4101.9042,4095.4765,4103.0565,4100.4804,4099.2503,4092.373,4094.1443,4091.5461,relax,
4096.5534,4094.7549,4096.7455,4096.3221,4095.961,4093.9063,4091.5308,4093.656,4098.2004,4094.634,4094.8719,4098.45,4096.9735,4088.9907,relax,
4097.1417,4093.8026,4097.1295,4098.7318,4098.9742,4103.5331,4094.7577,4095.5812,4099.1741,4100.7845,4093.045,4100.0931,4099.9497,4096.8619,relax,
4094.4883,4098.5898,4097.3524,4097.293,4092.825,4088.8784,4095.4226,4094.7142,4097.6002,4092.6941,4098.229,4097.2822,4092.6987,4099.3929,relax,
4085.3105,4085.0144,4088.431,4088.4868,4086.4163,4092.8898,4091.1181,4088.1219,4083.3934,4091.7422,4088.9418,4087.9051,4093.3076,4076.7197,relax,
4081.1175,4083.8909,4073.7171,4084.0912,4079.9782,4079.8544,4085.2155,4092.9317,4085.471,4083.4254,4083.5752,4075.1474,4084.4258,4082.3231,relax,
4074.611,4072.5138,4079.0306,4078.6941,4083.7869,4086.6827,4085.7307,4080.3748,4088.0978,4082.3293,4078.8119,4077.203,4076.9138,4075.8859,relax,
4082.9627,4083.1217,4081.0783,4082.893,4085.998,4091.6615,4087.4623,4088.3656,4087.2995,4089.2861,4087.5342,4091.1768,4078.2599,4081.261,relax,
4101.9815,4092.5062,4106.3596,4098.4871,4095.1852,4102.0967,4089.1265,4098.7675,4094.2477,4098.3016,4100.4478,4102.5644,4100.892,4108.035,relax,
4115.1969,4111.3074,4118.3375,4110.898,4109.8002,4091.6203,4107.6664,4105.5544,4105.6298,4105.502,4114.7718,4105.2664,4125.2717,4119.5655,relax,
4120.772,4124.0992,4118.528,4111.0544,4115.0157,4103.4315,4110.5125,4112.9047,4112.1155,4105.1026,4115.4547,4116.937,4113.5288,4110.0449,relax,
4107.6643,4108.4346,4115.596,4120.1376,4109.9272,4102.6907,4102.8471,4108.86,4108.2989,4108.0637,4110.0774,4115.8909,4119.3813,4112.4447,relax,
4102.3453,4103.0427,4099.4048,4091.7976,4101.6294,4096.4918,4104.2357,4099.699,4105.4158,4096.2243,4105.0929,4094.7269,4104.7756,4100.7612,relax,
4099.1748,4094.0616,4098.2009,4097.5506,4097.1646,4097.4257,4102.4228,4093.4558,4101.2687,4094.2156,4100.3678,4104.8299,4092.3007,4086.8009,relax,
4096.2274,4092.857,4093.5008,4094.3409,4093.5912,4101.4675,4100.2793,4100.4141,4104.992,4092.6433,4085.6709,4103.7009,4096.6257,4095.3497,relax,
4089.8377,4091.5167,4099.733,4096.2669,4088.0601,4092.8677,4100.7422,4101.6604,4097.4863,4108.0076,4100.9464,4104.2065,4102.2566,4100.3743,relax,
4088.0016,4087.2739,4090.6043,4094.9201,4094.3137,4095.9138,4094.5464,4096.5374,4098.3652,4094.3411,4092.7347,4083.0845,4097.1642,4090.265,relax,
4079.9614,4088.557,4088.2639,4088.7982,4091.8747,4084.1825,4088.6342,4087.3509,4095.4782,4091.5179,4085.1026,4087.956,4086.585,4083.1282,relax,
4076.0896,4080.2378,4075.3957,4073.5757,4083.4805,4081.877,4080.0941,4081.6026,4081.9354,4082.1708,4080.8244,4075.1144,4078.6351,4072.7286,relax,
4075.993,4078.0854,4077.8622,4083.9968,4080.6673,4076.3131,4084.1499,4087.6991,4082.7859,4083.0711,4071.3576,4072.2489,4078.6279,4076.9215,relax,
4082.4006,4088.1421,4083.4061,4082.9121,4089.5015,4090.5095,4092.0748,4093.4094,4096.3499,4093.0125,4086.0785,4090.0089,4080.804,4085.8051,relax,
4107.4264,4105.0636,4105.9484,4109.4101,4097.653,4103.5066,4099.3771,4104.2092,4100.798,4103.7443,4107.9571,4105.1591,4101.5077,4101.7418,relax,
4113.972,4118.4108,4120.3376,4111.6213,4102.0414,4105.9148,4108.525,4103.0019,4100.6149,4107.5011,4104.4378,4116.3901,4112.6541,4116.9892,relax,
4124.0669,4112.5029,4108.4583,4114.1908,4112.5192,4104.01,4106.4239,4106.509,4109.8395,4108.1814,4124.9581,4116.0001,4116.8807,4116.9413,relax,
4100.4128,4114.7106,4097.1592,4113.4154,4100.3048,4099.5554,4103.3567,4112.5759,4106.2695,4104.8255,4104.9172,4112.3893,4107.7066,4113.8404,relax,
4093.0448,4102.4246,4101.7788,4094.4781,4095.0046,4098.3497,4096.6013,4099.7074,4093.2005,4095.5969,4108.375,4097.1373,4098.6064,4100.1904,relax,
4094.618,4100.5917,4093.4647,4099.2053,4092.4066,4098.9315,4095.0043,4095.1616,4095.4847,4098.0294,4091.0117,4091.8716,4103.913,4097.7579,relax,
4094.5565,4098.5684,4095.7595,4086.9944,4096.6453,4095.5125,4097.3965,4092.9011,4095.1182,4100.5685,4095.3966,4094.2841,4097.4602,4094.4233,relax,
4100.4285,4095.4402,4097.598,4093.3091,4091.1093,4098.9715,4097.1296,4098.6314,4099.041,4090.2235,4096.6048,4088.1212,4098.2157,4091.8146,relax,
4092.6638,4094.323,4089.0531,4091.7434,4097.5578,4086.2611,4095.8677,4093.7667,4096.6693,4086.0609,4091.8498,4095.6278,4096.8558,4087.7175,relax,
4079.5594,4089.8819,4076.2241,4083.559,4086.9033,4087.5062,4084.2953,4091.8902,4090.3606,4093.4582,4080.5701,4079.9765,4086.9026,4087.9388,relax,
4072.9399,4069.6301,4073.9571,4081.4427,4083.9795,4086.6397,4091.7292,4082.3042,4078.5701,4076.4562,4077.0927,4078.8977,4082.6509,4073.8549,relax,
4075.3841,4077.2746,4081.8847,4076.4121,4082.3484,4083.2855,4085.1405,4092.482,4080.0272,4092.5892,4076.8389,4073.6972,4075.1627,4077.9201,relax,
4088.7963,4094.1952,4086.1297,4083.5892,4089.9419,4092.8306,4086.4043,4091.8573,4093.8539,4088.199,4086.9861,4085.0437,4089.1365,4090.6779,relax,
4117.4825,4109.8941,4100.6061,4098.2466,4102.2739,4108.5833,4104.0845,4099.3467,4106.3019,4108.2245,4110.2408,4101.3872,4106.9829,4101.3676,relax,
4114.8953,4110.3486,4115.2999,4107.9496,4113.2547,4109.221,4104.043,4109.4426,4115.3933,4111.5365,4111.359,4115.2123,4115.0466,4115.311,relax,
4111.3814,4114.0469,4121.4209,4110.4737,4102.5048,4108.9819,4111.97,4100.669,4110.0971,4111.8719,4115.9301,4118.6784,4117.9935,4111.8926,relax,
4112.123,4113.5298,4107.6795,4108.4127,4100.684,4109.4072,4100.6291,4109.7005,4102.6755,4107.4527,4104.7934,4116.0771,4100.1312,4111.1361,relax,
4091.9971,4094.978,4107.5377,4103.084,4090.7194,4098.5648,4095.7651,4100.5229,4105.9906,4101.3771,4101.1905,4102.0019,4095.4271,4103.1194,relax,
4099.7464,4093.6051,4093.4871,4101.8495,4096.8762,4091.4879,4094.3359,4094.2022,4095.7791,4095.7488,4095.0525,4102.7528,4099.3837,4101.9939,relax,
4089.3263,4096.5369,4100.7957,4098.9856,4093.3498,4093.0391,4099.8946,4095.2045,4098.6562,4096.6936,4095.6134,4096.5785,4092.7739,4102.9097,relax,
4096.9976,4100.5457,4092.7837,4092.8818,4093.9582,4091.8366,4098.0912,4098.2286,4093.2304,4093.9565,4096.5503,4091.8902,4093.311,4101.0469,relax,
4085.0372,4086.9134,4098.6806,4081.1133,4086.1576,4098.4033,4090.2141,4093.8516,4099.6928,4088.0269,4087.2528,4090.3048,4088.6774,4085.9238,relax,
4077.498,4074.875,4081.3316,4084.963,4083.8542,4084.3235,4088.8514,4084.5033,4083.9862,4084.2267,4087.513,4079.2719,4079.7326,4077.3747,relax,
4070.8122,4071.326,4070.5631,4080.5193,4078.5859,4082.1778,4081.7956,4078.389,4079.9494,4086.4501,4075.4196,4071.5341,4073.4742,4071.0088,relax,
4078.2877,4077.9622,4078.4734,4079.1353,4085.5091,4086.0692,4087.161,4088.8468,4084.4272,4088.9309,4082.9637,4084.8151,4079.29,4078.4622,relax,
4089.6896,4092.9106,4095.9769,4091.6726,4099.6764,4093.9537,4100.4702,4089.9423,4092.7435,4091.7223,4097.1772,4095.2732,4092.5424,4090.5951,relax,
4109.3624,4110.7517,4111.7351,4106.5373,4102.8323,4104.4901,4103.5213,4104.0144,4102.2679,4111.5825,4104.2606,4114.442,4113.428,4113.2582,relax,
4126.5783,4118.5356,4115.9687,4112.3734,4108.0882,4113.1986,4102.0803,4102.3132,4115.9791,4114.824,4116.123,4120.9289,4119.4094,4118.3346,relax,
4111.5342,4119.9721,4117.4809,4107.6222,4110.2708,4106.9704,4106.6711,4105.8207,4111.0501,4108.868,4108.5072,4118.3881,4116.7829,4111.7057,relax,
4110.1021,4110.5202,4106.8583,4106.7232,4100.9206,4096.479,4104.5694,4102.1305,4105.1977,4103.0388,4104.931,4108.1175,4106.7164,4111.9307,relax,
4098.224,4093.6716,4100.1824,4093.9228,4088.3726,4093.9646,4096.2838,4094.8544,4092.205,4097.6099,4104.0015,4102.9236,4099.4821,4103.604,relax,
4094.5689,4092.7628,4099.0179,4091.9301,4097.5475,4096.0956,4094.7209,4094.3396,4100.7472,4089.854,4097.3404,4095.1498,4093.3251,4096.4862,relax,
4097.1006,4095.6171,4096.8305,4101.5293,4093.4923,4097.5742,4088.961,4097.7433,4088.4347,4098.4214,4093.9692,4096.5069,4090.035,4095.9335,relax,
4096.3295,4095.8688,4093.2018,4093.6009,4098.6832,4097.164,4091.9583,4092.1381,4091.5006,4093.9588,4088.9841,4084.6373,4092.5162,4094.045,relax,
4085.9011,4090.7967,4080.8529,4085.2717,4083.2897,4090.4765,4089.9425,4088.4375,4089.659,4086.2319,4083.2362,4092.345,4089.6981,4084.4187,relax,
4069.5904,4077.3282,4079.6727,4080.4845,4087.0805,4088.7612,4085.135,4083.6009,4081.8761,4081.39,4083.4231,4075.6791,4071.4623,4077.616,relax,
4071.9393,4073.3061,4066.3742,4081.7482,4083.6398,4077.2535,4084.3013,4079.3593,4076.3586,4072.4596,4080.1854,4077.7479,4073.9355,4072.0957,relax,
4086.8962,4078.7897,4076.4274,4083.6114,4087.879,4085.1384,4081.9114,4084.5469,4089.0659,4088.54,4076.4184,4076.2759,4077.8707,4079.7747,relax,
4104.8273,4094.8567,4096.2484,4092.8114,4106.3413,4093.5923,4093.953,4096.6249,4090.7025,4099.2351,4095.9667,4092.6291,4093.6168,4088.4239,relax,
4109.8824,4101.0735,4109.0144,4106.9014,4103.951,4103.3313,4101.0065,4109.3105,4111.4197,4105.6287,4113.4584,4109.5902,4108.9623,4108.7895,relax,
4122.4729,4119.3133,4112.6265,4115.5863,4109.089,4106.6021,4108.2124,4100.6398,4108.4741,4118.7152,4116.6891,4113.2461,4119.0545,4120.0375,relax,
4115.2064,4111.6878,4114.8533,4110.0221,4108.4206,4111.2518,4109.9175,4101.4688,4106.4202,4115.541,4119.5779,4116.3296,4120.4692,4121.3224,relax,
4106.8985,4098.0701,4106.2677,4100.0124,4103.8585,4109.8407,4102.9366,4098.8011,4098.1786,4095.4611,4097.5171,4113.0194,4109.4791,4106.9023,relax,
4099.0476,4099.0124,4099.3198,4104.496,4099.9025,4090.2659,4102.1456,4090.1836,4096.5709,4092.7978,4099.089,4094.3381,4093.7092,4095.4733,relax,
4099.7116,4095.6587,4099.0886,4101.8062,4097.2454,4098.5542,4092.3593,4095.899,4091.6784,4098.5073,4099.9899,4100.2831,4096.2886,4100.0381,relax,
4094.5859,4093.0213,4097.2421,4098.2377,4104.2817,4098.4169,4091.1632,4091.6545,4090.2935,4095.7765,4090.9351,4100.6832,4094.1012,4097.7343,relax,
4091.5098,4092.89,4087.1648,4091.7885,4091.0285,4092.5367,4093.8483,4096.0755,4091.0796,4096.0324,4093.2394,4097.8659,4078.2643,4088.3323,relax,
4087.3371,4073.8614,4089.3371,4085.371,4079.0648,4090.684,4084.6671,4085.2262,4093.6402,4085.6862,4081.2048,4091.4304,4087.6627,4080.9645,relax,
4070.7745,4075.7647,4082.007,4074.4159,4076.7812,4087.8576,4083.3964,4084.9267,4084.8589,4080.3164,4068.6496,4074.8491,4081.5447,4082.6222,relax,
4072.4589,4075.5841,4080.2379,4079.9271,4082.4171,4074.2417,4082.3384,4084.8628,4076.1021,4079.7713,4084.3784,4073.7474,4069.9613,4065.382,relax,
4082.6996,4082.0245,4080.3311,4086.3058,4088.6558,4088.7452,4090.5092,4084.1913,4085.4848,4086.212,4085.1805,4087.7634,4081.4226,4079.6344,relax,
4105.4575,4099.7208,4093.6352,4097.5625,4093.3004,4093.5569,4092.4871,4094.6403,4106.3437,4102.287,4104.3331,4103.5778,4098.5475,4101.1218,relax,
4114.7867,4107.8981,4108.2557,4114.3017,4102.8867,4107.829,4108.1636,4108.5662,4108.5023,4102.9574,4112.8619,4112.3523,4108.2602,4106.4204,relax,
4121.775,4110.8839,4111.2232,4122.1678,4106.5354,4108.7022,4108.7516,4108.7453,4106.3048,4108.5076,4118.3987,4116.9374,4117.0011,4111.3197,relax,
4113.2365,4116.6171,4111.0519,4107.8189,4109.9996,4110.1134,4107.4912,4103.8908,4110.7173,4115.0159,4116.3049,4107.7154,4124.9055,4110.2288,relax,
4101.6412,4106.4971,4105.3238,4105.8813,4107.9953,4106.049,4097.9094,4101.7716,4106.3718,4106.9604,4108.9337,4108.9711,4108.1111,4104.4908,relax,
4094.1982,4100.744,4097.3771,4103.7548,4094.7311,4096.5578,4096.0925,4101.6728,4101.0883,4098.3127,4099.9448,4105.6523,4092.0037,4102.463,relax,
4100.6864,4101.1796,4099.5472,4093.1976,4094.0784,4098.8686,4093.8334,4095.3972,4090.1989,4091.4648,4097.6798,4094.6332,4093.2875,4095.6153,relax,
4095.2913,4093.2704,4094.9292,4094.8225,4093.7689,4094.806,4091.4555,4092.9982,4087.5031,4090.1091,4089.7204,4092.6433,4098.8367,4094.0496,relax,
4089.0926,4085.6221,4090.2399,4096.7757,4090.8451,4088.1955,4087.4317,4093.1468,4087.7292,4094.0476,4085.9433,4082.467,4091.3117,4083.3159,relax,
4082.0008,4085.6969,4078.519,4083.6943,4091.0575,4084.2865,4093.8535,4086.1455,4082.3949,4085.879,4083.7616,4085.4277,4085.0928,4081.0544,relax,
4075.2453,4076.1496,4077.6594,4075.2216,4076.7121,4082.8066,4094.5993,4087.0734,4079.1723,4086.6128,4069.8385,4073.4833,4077.0158,4069.9276,relax,
4071.7239,4076.0485,4073.6826,4075.3439,4077.6475,4076.6201,4080.7467,4084.2061,4086.8858,4079.3308,4073.6337,4082.2743,4072.1555,4074.479,relax,
4082.1386,4084.2223,4088.2397,4089.7519,4094.6099,4092.6055,4091.3559,4093.238,4085.8095,4094.3679,4090.038,4088.6526,4089.4921,4079.9653,relax,
4098.3297,4102.5707,4102.8959,4103.7925,4100.8202,4099.3812,4104.6012,4100.9683,4103.1059,4105.1747,4106.5482,4103.587,4104.9447,4103.9294,relax,
4120.5688,4122.9677,4110.4768,4109.212,4115.3131,4108.9117,4104.8253,4103.7684,4111.9169,4111.2198,4120.2539,4114.2916,4117.4516,4122.8942,relax,
4114.264,4112.9061,4119.1654,4112.9095,4109.6738,4107.7561,4107.8881,4104.8637,4105.2808,4112.9005,4115.699,4121.9952,4119.2075,4121.6955,relax,
4117.5944,4108.6935,4111.1024,4111.9658,4111.6325,4109.7359,4104.8152,4104.9179,4108.1492,4103.2675,4114.2605,4116.1854,4116.0691,4118.5566,relax,
4109.7983,4097.0937,4105.9233,4098.1259,4098.4655,4101.3528,4105.8317,4102.4241,4102.8098,4109.4188,4104.8095,4101.2233,4099.0544,4102.315,relax,
4099.7313,4092.7271,4100.774,4099.8626,4095.2215,4098.3868,4099.7735,4095.1798,4100.9015,4095.2347,4100.9771,4104.8516,4100.1779,4094.1899,relax,
4096.3548,4096.3242,4092.5552,4090.962,4094.4735,4099.4734,4099.2715,4100.7996,4095.8206,4103.8585,4092.6154,4097.7633,4095.0336,4101.9656,relax,
4092.7343,4088.8843,4093.8442,4088.7962,4090.3384,4097.6686,4094.1535,4097.6571,4090.4686,4099.0145,4092.5829,4085.0474,4089.4298,4087.0155,relax,
4080.0312,4089.1421,4088.1582,4090.2724,4086.5782,4092.0587,4084.8687,4088.8094,4089.2969,4087.2461,4088.311,4086.6046,4088.9846,4087.1006,relax,
4080.901,4077.4293,4081.1995,4081.9738,4084.8635,4085.1828,4077.5356,4093.8315,4080.9866,4080.7053,4079.5747,4073.3534,4086.3338,4074.601,relax,
4069.1252,4071.4385,4075.5398,4082.2717,4081.6417,4078.4195,4088.7385,4084.5817,4078.6266,4080.2626,4077.2137,4074.7399,4074.7637,4071.9561,relax,
4083.2459,4089.5541,4078.1032,4076.1669,4078.8677,4087.1293,4078.997,4084.766,4085.4566,4083.7953,4078.2171,4084.7622,4081.4043,4073.9113,relax,
4092.3327,4089.2799,4087.6786,4088.9294,4096.3779,4089.6836,4092.1786,4096.544,4093.1362,4092.6094,4087.8985,4099.0671,4093.2889,4079.7254,relax,
4111.2272,4099.665,4099.7215,4101.2167,4107.4381,4100.9166,4102.0479,4094.5254,4106.3083,4101.3378,4098.8512,4106.5089,4106.7687,4106.3506,relax,
4122.9925,4117.5421,4122.0896,4113.2423,4110.4074,4112.5528,4111.9845,4106.0175,4116.6394,4110.4306,4113.4808,4117.848,4111.7847,4111.2428,relax,
4128.0529,4121.2273,4114.2276,4115.6123,4113.7452,4108.3461,4114.124,4106.4135,4114.2675,4108.7294,4117.0926,4124.1229,4118.868,4117.8775,relax,
4114.5671,4114.4582,4110.5538,4108.5647,4114.3635,4112.1961,4102.5408,4099.9206,4101.4746,4102.8564,4109.0085,4111.9632,4106.0238,4114.2989,relax,
4093.5697,4104.6399,4110.8792,4098.4856,4090.3581,4102.1757,4103.5776,4099.1412,4102.4244,4107.0411,4110.1035,4106.84,4099.1366,4105.8602,relax,
4095.0245,4098.6003,4097.818,4096.1367,4104.061,4096.9047,4091.6495,4099.0915,4100.5598,4098.1406,4095.3211,4097.054,4096.3073,4097.0069,relax,
4092.5038,4094.5094,4089.9428,4096.4358,4092.4295,4099.0949,4097.1667,4101.6648,4090.1294,4101.2038,4094.9825,4097.8417,4098.9526,4099.1557,relax,
4091.0054,4093.2063,4090.8116,4094.7178,4089.0787,4094.4736,4099.4323,4101.3005,4097.1278,4098.4912,4093.9017,4095.3936,4099.1681,4090.542,relax,
4076.8379,4084.045,4084.9577,4082.4554,4083.0094,4086.3414,4084.4182,4092.9889,4095.132,4090.5024,4080.1727,4085.0421,4081.2931,4084.3078,relax,
4071.6137,4081.3689,4079.403,4077.8426,4084.5179,4083.5965,4091.941,4077.425,4084.9953,4087.472,4077.6578,4074.5974,4078.1467,4071.2273,relax,
4069.5237,4070.4929,4072.9063,4068.1681,4078.0177,4083.6359,4081.8343,4081.7008,4084.9979,4086.74,4073.5871,4078.4362,4067.5877,4068.2867,relax,
4080.0904,4081.1442,4079.8679,4085.0172,4083.6353,4088.2183,4084.6566,4084.1026,4077.6687,4087.1516,4078.0865,4083.4215,4084.1523,4077.0584,relax,
4092.9487,4093.799,4092.0516,4087.4454,4099.6068,4091.6885,4096.3497,4095.3973,4095.1185,4094.6996,4096.9281,4089.3888,4096.976,4093.2632,relax,
4109.0548,4105.6897,4107.6844,4108.6349,4099.5668,4096.8564,4101.6078,4105.5153,4102.5425,4109.7394,4111.5024,4113.4761,4113.1593,4109.952,relax,
4121.3135,4113.5519,4106.4601,4116.0582,4107.6623,4109.0228,4098.0422,4111.5739,4109.0205,4108.3863,4109.8169,4113.9517,4112.8927,4115.1616,relax,
4113.8649,4115.8558,4116.2831,4118.2511,4104.0449,4108.3269,4104.6635,4109.5925,4109.9007,4114.447,4122.1664,4117.6399,4118.815,4116.5185,relax,
4112.3376,4110.9229,4120.0528,4104.9177,4106.2445,4106.1847,4101.742,4106.1691,4106.1636,4107.2589,4106.5872,4114.4357,4107.1017,4111.3563,relax,
4108.0187,4109.1853,4100.938,4105.3948,4101.1814,4105.3535,4100.9331,4107.2754,4107.308,4097.6298,4101.5963,4100.9369,4103.2705,4097.3602,relax,
4091.9318,4102.3906,4099.7794,4101.1152,4094.0623,4093.3715,4096.5915,4102.8972,4097.8775,4098.4129,4102.8123,4099.9351,4099.0392,4100.3361,relax,
4093.5083,4100.772,4093.9919,4091.7347,4097.6199,4098.7493,4093.2139,4097.9969,4099.2688,4081.4866,4087.7181,4096.0114,4090.7563,4101.0167,relax,
4089.8952,4089.0807,4089.4381,4088.5597,4088.6958,4092.0467,4096.1632,4085.9632,4092.5225,4089.4649,4090.4235,4086.1839,4090.0625,4084.3103,relax,
4080.4193,4081.3192,4075.0794,4085.2735,4074.8329,4085.1975,4081.9779,4088.9683,4085.3561,4089.3482,4082.792,4080.8886,4086.8428,4078.6412,relax,
4073.0152,4081.5829,4077.6108,4085.6387,4083.202,4080.1618,4088.4058,4087.799,4081.1879,4083.5261,4077.3775,4076.9555,4076.0083,4072.6143,relax,
4078.8015,4076.7457,4068.6406,4077.6708,4079.473,4082.8799,4084.5038,4085.0091,4074.8342,4074.398,4082.4395,4073.8561,4080.2732,4074.1568,relax,
4078.3497,4075.5901,4083.7713,4085.6548,4093.0732,4085.8792,4088.2352,4080.6984,4084.2618,4087.0523,4082.1825,4078.2277,4088.0152,4086.8928,relax,
4091.7274,4096.3957,4094.286,4101.9393,4096.9498,4098.3891,4092.2599,4101.31,4094.8042,4103.4517,4100.3698,4093.3962,4098.1077,4096.9737,relax,
4110.6138,4112.6386,4110.1572,4108.5117,4103.3932,4102.3218,4104.3659,4104.7742,4109.6029,4100.5011,4108.8492,4116.6346,4106.927,4107.3252,relax,
4116.2653,4120.2609,4112.9893,4115.2553,4108.6651,4108.0811,4107.2401,4106.967,4108.9128,4111.126,4116.2531,4116.2399,4118.9775,4118.0532,relax,
4117.2955,4116.5059,4110.398,4111.2056,4108.1197,4105.7759,4107.0919,4105.0852,4106.2223,4114.8556,4122.8194,4121.2387,4117.5309,4123.6078,relax,
4113.3381,4109.1089,4111.2409,4107.5216,4097.4728,4102.2833,4101.0463,4106.2967,4103.7247,4099.0931,4108.7508,4111.9416,4113.2288,4113.5386,relax,
4113.6562,4099.653,4108.7151,4106.1592,4098.6386,4100.344,4097.2243,4099.7132,4099.0841,4099.4006,4102.4541,4099.3032,4107.6208,4107.6063,relax,
4095.2416,4101.2307,4093.6553,4090.4821,4098.5541,4099.3998,4094.0944,4099.1566,4105.0555,4109.344,4094.1264,4099.1675,4092.8657,4109.3486,relax,
4091.1279,4096.6866,4093.4993,4089.2687,4093.1702,4088.7082,4091.8133,4093.3006,4095.0225,4084.9107,4093.2345,4103.3335,4089.4397,4094.1746,relax,
4084.5007,4076.0813,4082.9962,4085.4207,4093.1117,4089.9757,4090.0193,4093.5934,4090.6325,4089.064,4090.8275,4081.4729,4086.5452,4091.2066,relax,
4069.3629,4076.93,4079.9948,4082.4552,4083.0857,4086.8737,4083.054,4090.518,4085.9328,4091.6917,4084.9251,4081.5759,4085.757,4074.7105,relax,
4070.6512,4067.7245,4077.2402,4083.276,4078.5855,4076.6259,4087.9279,4080.4793,4079.4768,4086.6855,4075.2244,4073.0124,4081.1726,4074.1877,relax,
4068.7106,4081.7519,4067.844,4081.6033,4083.2194,4080.0865,4080.9071,4079.5731,4089.096,4081.7564,4075.0509,4077.1051,4080.5492,4074.2421,relax,
4086.1045,4088.6547,4084.5663,4087.1197,4087.4211,4084.4206,4084.3366,4091.2071,4085.5564,4087.7984,4084.8624,4088.2124,4085.9585,4084.5425,relax,
4098.1805,4098.3754,4097.7009,4099.6597,4091.2326,4097.917,4099.2001,4099.3029,4093.686,4096.4446,4097.1382,4096.9006,4094.0599,4094.9809,relax,
4113.8383,4113.2076,4112.9697,4106.7556,4108.9331,4105.886,4103.2749,4101.5558,4104.6437,4110.2611,4109.5056,4111.8852,4107.6615,4124.9636,relax,
4111.5877,4109.5781,4116.5763,4116.5156,4118.8685,4112.8436,4110.02,4112.4953,4111.1688,4103.954,4116.7373,4119.5449,4126.3684,4117.7636,relax,
4123.6858,4110.4968,4122.9749,4114.6554,4113.8479,4112.409,4110.4925,4108.1714,4106.9698,4109.8612,4111.0633,4116.393,4109.5021,4119.3452,relax,
4115.2887,4114.3416,4115.4045,4108.9135,4105.2263,4104.2068,4105.5668,4106.8658,4106.5803,4100.4612,4113.8159,4112.0591,4113.4968,4111.5873,relax,
4102.4728,4110.3649,4098.6361,4095.2608,4108.7939,4101.4716,4098.1952,4097.5686,4092.4857,4108.2798,4104.8359,4104.9554,4105.9134,4099.8581,relax,
4098.9941,4101.3641,4088.248,4099.3123,4099.731,4097.1023,4093.0612,4095.9412,4094.8636,4098.1941,4094.8001,4100.1254,4094.9479,4095.0812,relax,
4095.7962,4091.0645,4093.6388,4086.908,4098.9616,4087.2646,4093.8512,4092.5653,4090.021,4091.7806,4097.0381,4098.4681,4090.7609,4089.6922,relax,
4076.1114,4091.9688,4080.349,4082.4588,4088.498,4091.5101,4095.6571,4098.2625,4091.5892,4086.1582,4083.4713,4083.8993,4088.3261,4087.4427,relax,
4078.0224,4070.4303,4074.9256,4085.4705,4080.7826,4083.4114,4096.2756,4085.0727,4089.4265,4090.2698,4082.6764,4075.4506,4068.888,4072.1189,relax,
4073.5923,4076.3846,4077.7066,4071.5918,4080.81,4072.811,4079.4787,4085.1271,4072.2825,4083.279,4083.3378,4067.2732,4072.9813,4077.893,relax,
4076.3934,4078.5733,4076.5497,4073.2255,4081.6228,4088.1812,4085.1112,4087.65,4081.5876,4078.6844,4076.9878,4071.9075,4071.5348,4074.3113,relax,
4085.4508,4083.7604,4089.9209,4084.5664,4091.5365,4092.2131,4097.6541,4092.3585,4093.3779,4090.133,4082.664,4090.5595,4094.2395,4085.8688,relax,
4110.8935,4105.4316,4110.0008,4100.4899,4096.6331,4100.1349,4096.4846,4100.1834,4098.9445,4100.8298,4100.8545,4098.0999,4099.6186,4107.5949,relax,
4115.5552,4108.0688,4106.1573,4110.5577,4109.7931,4103.1646,4099.1515,4108.5441,4120.662,4112.1659,4107.8609,4113.7538,4112.9567,4110.7221,relax,
4115.5024,4117.5337,4122.2701,4117.1067,4109.343,4113.1091,4111.1469,4105.1312,4106.2001,4114.6569,4120.6401,4120.7311,4122.8216,4126.987,relax,
4112.0672,4117.4334,4121.67,4118.2787,4115.9044,4106.958,4110.2608,4110.639,4106.9156,4110.9583,4108.4176,4113.0107,4116.8292,4122.3862,relax,
4110.7116,4115.0854,4115.4949,4103.8405,4105.012,4102.8151,4106.9447,4106.5243,4101.654,4109.1138,4102.4892,4114.249,4099.1923,4109.9983,relax,
4100.0038,4104.719,4103.2989,4092.7023,4094.9931,4097.7527,4104.2896,4106.0795,4102.8293,4106.0665,4098.456,4103.9551,4102.5232,4098.5163,relax,
4094.5984,4094.5726,4097.8243,4097.9816,4093.8062,4093.8725,4088.3975,4098.0213,4095.5864,4095.884,4098.1832,4094.0185,4092.1447,4093.5918,relax,
4087.6788,4090.7576,4087.1858,4088.6797,4086.2359,4090.2017,4085.3996,4089.7447,4093.992,4092.2398,4089.818,4088.711,4093.4882,4084.3398,relax,
4082.7474,4079.9152,4083.2931,4083.3744,4084.2133,4088.2363,4085.6039,4083.337,4085.055,4081.3674,4084.5634,4079.7486,4077.7255,4082.4356,relax,
4075.0894,4075.4462,4074.1145,4081.6389,4080.5039,4083.5216,4079.7508,4086.5211,4081.9175,4083.6615,4076.8932,4072.2717,4071.3763,4072.6569,relax,
4068.9035,4068.5833,4077.7654,4079.8954,4071.6958,4072.2887,4076.7869,4083.4915,4091.5635,4075.1069,4074.5239,4078.0935,4071.7909,4075.2046,relax,
4080.0007,4078.5156,4081.3713,4083.955,4077.7575,4083.4601,4083.2209,4085.856,4079.3036,4079.3832,4080.4344,4077.8138,4084.1748,4077.1058,relax,
4095.2761,4095.5625,4094.6143,4076.698,4088.7779,4093.9818,4087.3515,4090.5327,4094.8023,4092.06,4089.4419,4096.9928,4088.6326,4093.992,relax,
4105.33,4104.7819,4103.3323,4100.2605,4101.2119,4096.2545,4103.3995,4101.4072,4099.9569,4105.2761,4099.454,4096.8959,4106.071,4100.0189,relax,
4111.9553,4115.604,4119.6788,4110.1149,4106.2146,4114.947,4101.549,4110.5907,4110.6413,4106.8804,4112.6836,4112.3738,4112.2877,4116.9254,relax,
4118.6037,4111.7893,4122.2463,4113.9278,4115.4625,4110.6429,4120.4755,4111.4567,4105.8734,4106.7874,4112.7596,4117.6825,4111.7692,4116.9273,relax,
4117.7626,4108.8457,4115.5661,4114.2937,4105.8698,4111.4371,4107.6254,4111.6584,4111.6801,4109.0389,4112.7316,4117.8132,4116.6089,4110.9309,relax,
4113.7563,4106.1202,4113.4623,4107.9567,4102.3937,4104.4292,4109.068,4100.3078,4097.5917,4103.9693,4112.2776,4115.2788,4112.4951,4101.5691,relax,
4101.0408,4099.3583,4100.8043,4096.4117,4098.733,4094.8572,4108.3948,4099.3541,4097.5235,4094.8751,4104.623,4103.8441,4105.9185,4103.3758,relax,
4092.6429,4091.7832,4091.5781,4093.1932,4097.792,4092.9037,4096.3658,4098.2405,4093.2938,4098.9648,4096.4946,4096.1681,4094.5911,4095.2106,relax,
4083.2715,4084.4737,4088.4572,4092.1481,4089.1345,4092.4365,4090.2473,4088.0396,4090.4779,4091.5935,4085.8155,4085.0802,4085.8469,4087.4453,relax,
4072.4541,4081.5689,4080.8122,4082.7048,4082.458,4086.5323,4082.411,4083.7793,4088.6087,4079.3922,4079.3053,4077.4548,4083.0701,4072.5938,relax,
4069.4253,4070.346,4080.3432,4075.5195,4078.4226,4081.9236,4086.8623,4075.1144,4077.145,4081.3734,4074.1057,4067.9491,4071.8517,4072.4077,relax,
4072.2954,4081.8339,4066.4365,4070.0699,4075.1641,4084.8873,4079.4125,4076.9207,4084.245,4077.035,4080.4554,4073.852,4071.3462,4074.568,relax,
4081.7843,4086.6261,4078.2646,4080.7425,4090.7016,4089.9586,4087.9394,4083.5107,4081.3234,4079.0892,4078.0535,4079.092,4075.851,4081.4034,relax,
4082.4669,4089.9624,4090.3179,4095.8598,4096.0306,4089.1457,4095.2411,4090.1485,4095.2345,4089.0607,4093.9372,4098.9128,4101.3282,4097.128,relax,
4104.1997,4104.7708,4103.6071,4103.4201,4096.8973,4100.8742,4106.8806,4111.347,4105.1343,4104.7016,4108.5527,4101.0177,4103.4638,4111.5467,relax,
4118.0772,4114.776,4120.5855,4106.7806,4115.395,4106.5573,4110.2183,4107.9675,4112.7195,4114.6954,4110.3598,4120.5181,4118.2741,4124.7112,relax,
4119.5128,4123.3005,4122.4899,4114.7318,4116.4047,4109.8859,4112.9779,4108.9237,4111.8076,4112.6719,4120.5562,4119.2284,4120.8731,4124.0239,relax,
4113.7873,4118.3734,4121.4181,4115.0226,4111.2066,4105.3273,4112.1939,4100.9012,4109.3111,4115.7829,4110.2234,4117.6845,4111.7721,4119.8582,relax,
4103.6788,4106.0893,4105.7207,4107.0773,4097.7321,4110.0335,4104.1765,4100.9809,4109.9594,4104.4417,4107.6971,4109.425,4114.1016,4109.969,relax,
4096.6517,4100.6896,4102.2081,4099.8347,4096.5519,4095.7208,4091.772,4100.4843,4095.6156,4096.5804,4101.9762,4104.8456,4096.1895,4099.5174,relax,
4091.1289,4095.1235,4088.8083,4090.1547,4095.5711,4091.6098,4090.1721,4094.2417,4090.3575,4092.7969,4098.4989,4092.2616,4092.5518,4090.8225,relax,
4078.0796,4086.294,4089.1791,4091.582,4099.839,4087.7169,4090.6526,4085.4455,4096.3067,4092.3915,4090.3747,4087.4979,4085.054,4074.0131,relax,
4080.8459,4080.9351,4078.4885,4076.5707,4086.5713,4085.1021,4086.3219,4081.092,4079.4194,4082.7433,4079.4519,4073.2978,4085.2025,4074.0911,relax,
4070.2501,4074.6107,4078.4393,4072.5088,4078.9447,4075.609,4086.9416,4084.4506,4081.341,4080.8251,4082.8733,4072.1105,4071.2348,4068.1961,relax,
4075.8816,4077.0194,4075.6178,4074.0124,4082.6709,4083.8582,4083.8182,4082.867,4083.3486,4082.0831,4074.6866,4072.4487,4067.806,4074.1476,relax,
4080.6487,4089.0753,4075.1433,4084.7485,4088.828,4084.2582,4090.1775,4089.3783,4089.1706,4085.5227,4071.363,4082.6042,4083.2534,4078.1629,relax,
4090.6988,4098.0918,4097.5857,4102.3171,4092.774,4100.7421,4096.0684,4094.0149,4097.9969,4099.506,4093.8992,4102.2816,4096.0752,4091.0677,relax,
4106.3482,4113.4024,4107.499,4108.2785,4105.9617,4104.492,4107.667,4101.8219,4100.503,4096.3322,4107.4484,4108.6545,4114.0676,4108.0865,relax,
4124.3442,4116.185,4125.1939,4111.5062,4109.9162,4113.2653,4113.3644,4111.9864,4105.2103,4115.874,4115.3638,4111.7987,4115.1059,4118.8578,relax,
4118.4144,4123.7615,4121.7098,4121.0465,4108.8704,4104.6864,4111.1265,4109.454,4114.8197,4115.0318,4117.1125,4122.767,4118.8446,4122.4319,relax,
4124.3592,4119.1507,4110.602,4106.0284,4114.5142,4106.5216,4106.105,4104.679,4109.5756,4107.4294,4107.5949,4107.6698,4104.4243,4112.2285,relax,
4113.0807,4102.9693,4107.1133,4110.2315,4109.0519,4101.0811,4105.1799,4100.8325,4095.5554,4107.6262,4106.186,4103.6991,4107.5441,4109.5165,relax,
4100.1082,4095.1564,4098.4681,4099.976,4101.2183,4097.2017,4093.457,4099.4874,4103.0132,4095.8208,4100.7772,4103.3599,4103.2625,4104.8207,relax,
4091.9597,4097.078,4096.6494,4088.5514,4093.9289,4093.8365,4090.5715,4091.9928,4084.8638,4095.5303,4095.2566,4095.8437,4096.8418,4088.4065,relax,
4081.4324,4089.9181,4087.5052,4081.9077,4077.6447,4086.728,4084.4836,4089.0082,4091.5269,4081.2978,4085.9571,4078.3235,4093.6733,4082.2787,relax,
4076.0606,4072.6045,4067.3761,4074.6925,4078.1954,4087.5864,4080.0529,4087.9511,4084.5818,4081.5761,4068.5821,4073.7084,4080.6637,4076.3091,relax,
4070.6436,4067.4122,4072.6258,4076.2511,4077.4445,4082.1597,4079.6624,4074.4725,4077.8543,4076.6278,4080.1123,4074.9997,4072.9576,4067.8582,relax,
4075.2297,4081.7337,4070.9688,4075.0409,4085.881,4084.1214,4082.2845,4088.6594,4084.4045,4077.5067,4078.6961,4074.8083,4082.3679,4075.4264,relax,
4085.7153,4085.7807,4086.8426,4080.6684,4082.3624,4090.2261,4091.2452,4088.0323,4080.6764,4083.8289,4088.3763,4085.2663,4082.6821,4080.0653,relax,
4100.2479,4098.1968,4098.2901,4096.5282,4098.6375,4099.04,4095.1493,4104.3054,4095.5541,4098.7017,4092.3393,4094.9316,4102.482,4102.0876,relax,
4114.2125,4108.5812,4113.38,4105.9113,4111.3866,4095.8965,4103.484,4101.835,4111.5918,4106.3145,4114.8326,4117.7481,4113.0904,4106.8019,relax,
4118.1506,4116.1495,4120.7548,4117.6514,4106.7879,4114.238,4105.0275,4107.6708,4112.1292,4111.5871,4122.4083,4123.7102,4112.87,4116.6631,relax,
4125.5991,4118.4531,4121.5135,4116.1003,4116.9222,4114.0866,4112.1459,4106.2931,4113.4297,4105.5591,4115.037,4116.4582,4114.8932,4117.2529,relax,
4106.8996,4117.6121,4112.5645,4110.435,4110.1201,4111.6187,4111.1909,4104.1172,4108.1099,4104.4939,4114.0752,4113.4998,4116.2948,4118.2392,relax,
4109.5515,4107.3184,4105.9389,4099.369,4103.9881,4108.9886,4099.6852,4098.7114,4104.727,4109.369,4100.1756,4095.9272,4102.7144,4106.8235,relax,
4097.1477,4096.4714,4095.5706,4094.7876,4093.7913,4098.4712,4099.1837,4090.5525,4103.3589,4098.8661,4099.5909,4096.4499,4098.5318,4093.2244,relax,
4095.4182,4095.574,4088.6797,4085.1927,4090.3507,4094.2159,4090.8288,4089.2214,4092.4942,4088.0788,4095.8087,4093.4199,4092.5696,4086.253,relax,
4081.18,4086.6679,4073.232,4084.305,4091.6106,4093.8577,4084.0612,4088.9683,4090.7889,4090.8091,4076.1235,4073.5662,4082.8475,4082.3459,relax,
4072.4172,4074.3741,4079.8743,4083.4424,4078.8571,4082.78,4079.3685,4090.938,4076.5323,4076.9455,4073.9731,4070.5683,4080.7958,4082.202,relax,
4071.0358,4071.7697,4074.9607,4071.5664,4084.7066,4080.2501,4084.1586,4079.7114,4079.5782,4072.8771,4075.2694,4075.6347,4065.7078,4065.9538,relax,
4072.6677,4075.905,4075.9254,4078.6776,4083.4212,4083.0014,4078.1299,4086.1124,4087.9571,4083.3186,4071.764,4077.2158,4079.045,4070.6153,relax,
4086.9643,4092.8861,4093.8763,4089.0336,4092.0519,4089.7352,4089.5035,4096.6829,4094.2455,4092.4901,4086.4214,4093.2758,4091.9422,4081.4928,relax,
4106.6667,4102.2281,4102.9212,4092.9816,4094.1873,4103.7455,4096.2144,4102.5322,4094.4788,4094.1389,4108.6929,4105.4449,4101.0414,4103.2072,relax,
4112.7034,4114.6173,4118.6925,4109.9683,4110.4467,4100.9538,4113.3658,4110.178,4107.6027,4107.1665,4117.2742,4111.9557,4114.6723,4114.2822,relax,
4118.0577,4122.8141,4118.0399,4118.4557,4111.0899,4110.9113,4108.7051,4106.7698,4114.3824,4112.132,4120.0499,4122.676,4123.5479,4119.7826,relax,
4122.8029,4116.5527,4118.1267,4112.4607,4109.557,4113.0094,4107.189,4105.6391,4113.882,4112.882,4110.4443,4118.639,4121.7631,4124.5328,relax,
4111.1736,4106.8007,4110.4742,4115.2341,4110.0611,4097.2185,4108.4425,4096.1362,4114.1236,4110.4676,4108.2794,4112.3642,4113.8876,4111.3485,relax,
4106.521,4103.1087,4102.9703,4109.0336,4093.3918,4101.3883,4094.9345,4099.7784,4098.3677,4111.7319,4100.8766,4103.4256,4101.1532,4108.2245,relax,
4093.9594,4093.38,4103.4816,4099.1238,4097.0759,4105.6495,4093.468,4092.7496,4092.826,4100.8126,4093.5247,4100.761,4093.4823,4088.7414,relax,
4084.1266,4089.5217,4092.7957,4094.2718,4091.9188,4093.5362,4080.9155,4092.5439,4090.954,4089.2173,4086.4029,4091.5454,4092.9302,4095.1914,relax,
4077.8988,4077.5722,4087.6046,4080.8606,4082.8314,4080.0579,4088.6729,4089.4153,4088.981,4085.8063,4084.3187,4082.2808,4082.814,4083.3915,relax,
4075.2619,4075.5049,4071.6349,4079.8934,4078.2367,4080.9205,4080.5782,4091.9747,4077.6265,4083.2009,4079.3867,4077.2887,4074.5913,4072.1875,relax,
4069.4641,4062.4691,4069.2543,4080.8572,4076.2559,4081.0909,4093.1611,4078.738,4078.5323,4078.5126,4067.4072,4068.8382,4067.6266,4072.4269,relax,
4075.4738,4070.2767,4081.2658,4084.2582,4082.049,4088.0642,4088.1898,4082.1829,4085.4023,4084.2346,4077.0292,4073.9187,4080.4384,4085.6891,relax,
4089.5385,4091.2863,4085.9749,4089.9119,4091.1508,4090.7057,4090.0943,4092.523,4089.9608,4096.9259,4099.1497,4087.1473,4088.9907,4091.422,relax,
4107.6728,4101.1657,4102.3099,4105.8188,4095.4246,4110.4645,4102.0629,4099.6406,4101.003,4097.6844,4110.6824,4104.2577,4102.4793,4112.3686,relax,
4121.5554,4114.0786,4117.4584,4111.8135,4108.2649,4107.9728,4108.3321,4111.5219,4116.7667,4101.0234,4122.4315,4119.8109,4114.9225,4115.7075,relax,
4114.5346,4123.6638,4115.548,4119.4129,4110.9855,4105.1012,4111.1973,4111.469,4107.8609,4116.082,4124.0272,4121.8889,4120.6116,4119.0717,relax,
4114.9271,4114.69,4117.5138,4114.5146,4109.9786,4119.8177,4110.2885,4104.0988,4105.0484,4103.8199,4110.4295,4119.5527,4115.1735,4116.3131,relax,
4114.0058,4111.9665,4111.8811,4108.4649,4105.8673,4100.114,4096.7557,4100.9109,4102.2337,4102.7385,4107.825,4108.4994,4104.5512,4111.2358,relax,
4104.2594,4100.1154,4105.6385,4102.7942,4101.9837,4098.6551,4101.2499,4102.326,4092.4323,4104.6991,4099.4878,4104.9647,4092.8602,4101.1789,relax,
4087.4851,4093.8938,4095.1445,4096.2528,4094.9827,4089.9586,4100.3171,4089.7251,4093.6234,4091.793,4092.2148,4088.8063,4098.8298,4097.2656,relax,
4085.8618,4086.2489,4082.5694,4087.2199,4085.6961,4090.0908,4092.1541,4089.5906,4091.3412,4091.6626,4090.8789,4094.3083,4081.1155,4080.6399,relax,
4072.204,4078.5504,4072.2065,4078.7343,4087.2371,4087.559,4092.7146,4089.571,4088.694,4081.7689,4079.4237,4082.0999,4082.7759,4069.4046,relax,
4065.4457,4070.0886,4069.5601,4081.2695,4087.2237,4082.3197,4084.3628,4090.7678,4082.7948,4082.2362,4077.4908,4074.4973,4079.3964,4073.9054,relax,
4071.1754,4072.2813,4073.8874,4069.2164,4081.7366,4081.4047,4084.1968,4078.2867,4082.7753,4080.6261,4075.8391,4074.328,4070.5353,4065.0085,relax,
4080.4626,4071.9216,4082.4146,4090.3871,4086.3768,4089.0025,4093.4869,4091.1528,4094.6958,4081.409,4080.7521,4081.9678,4074.269,4078.6204,relax,
4093.085,4098.3915,4097.3415,4096.5194,4096.7505,4094.3363,4095.5141,4097.3832,4098.1377,4091.0873,4095.2527,4092.7712,4094.262,4097.4356,relax,
4107.2162,4103.0645,4103.5973,4103.4823,4106.258,4102.6683,4099.9616,4105.4448,4103.9711,4106.6223,4114.547,4114.7663,4108.1319,4109.5743,relax,
4123.4579,4121.3544,4115.7303,4109.5024,4114.1738,4110.7023,4110.4024,4110.1333,4107.0082,4108.6818,4118.6878,4116.5167,4113.1166,4117.9017,relax,
4123.5453,4116.7993,4126.8279,4120.0131,4106.6501,4112.491,4115.7721,4122.6816,4109.6897,4112.7099,4111.3384,4122.1033,4120.7555,4123.0875,relax,
4113.5032,4118.3443,4123.4056,4118.9069,4111.4267,4108.9011,4110.9502,4106.7925,4098.9878,4103.1063,4118.945,4121.414,4114.7177,4114.6472,relax,
4108.7266,4103.112,4107.7977,4114.1301,4102.4113,4101.179,4097.8667,4104.0652,4100.557,4107.5154,4105.9077,4115.5387,4110.6216,4111.8357,relax,
4095.5465,4100.6493,4101.975,4101.5104,4100.7328,4099.5945,4094.0195,4089.0631,4094.6396,4103.3669,4103.3403,4105.3293,4101.8654,4102.0819,relax,
4092.6269,4086.1379,4093.5459,4090.6559,4091.3606,4089.9816,4093.9413,4097.8707,4097.1337,4089.9138,4094.2152,4092.5356,4084.9261,4096.3183,relax,
4081.2302,4087.6014,4081.6281,4089.3663,4093.1972,4089.7368,4091.8379,4087.0514,4087.4228,4083.7279,4090.4653,4089.5381,4083.3606,4083.9697,relax,
4072.8877,4072.772,4075.1313,4074.8549,4075.153,4084.9167,4081.3857,4085.201,4073.1014,4083.2697,4076.8752,4074.6889,4081.4901,4075.0654,relax,
4071.5853,4073.676,4074.3625,4072.3448,4079.5622,4079.7003,4085.5178,4080.3764,4083.6466,4081.7224,4073.1868,4075.3438,4071.8653,4067.8287,relax,
4068.5462,4070.3608,4074.9339,4075.8131,4079.2513,4084.8657,4086.916,4083.8284,4073.7078,4082.4197,4068.7638,4070.1185,4074.0155,4077.8875,relax,
4071.1701,4076.7601,4079.4277,4086.8425,4079.9336,4083.858,4093.1018,4091.7778,4084.6266,4090.5174,4084.4183,4078.6619,4080.0315,4078.5864,relax,
4091.6852,4097.8354,4100.0399,4090.2391,4098.6655,4091.822,4095.7097,4097.2141,4100.0553,4095.9039,4096.9951,4102.5172,4102.461,4100.2127,relax,
4113.9048,4111.1473,4116.2677,4110.8715,4102.8264,4105.3665,4105.3928,4098.1786,4102.6302,4112.3808,4103.3742,4111.7502,4110.3668,4114.7632,relax,
4117.1426,4114.2339,4118.5242,4112.8854,4117.714,4111.278,4112.0229,4104.6261,4112.9116,4121.4793,4115.1813,4113.8273,4121.8957,4118.3534,relax,
4116.4574,4114.0273,4114.835,4118.5798,4108.9914,4107.891,4107.8298,4111.0212,4114.9273,4117.3226,4115.1603,4123.6276,4115.3883,4128.454,relax,
4118.926,4115.0548,4108.4569,4116.2527,4107.2137,4105.8218,4103.348,4104.2069,4110.2415,4110.7941,4112.5641,4122.3025,4108.997,4117.5896,relax,
4102.8686,4108.9746,4109.5008,4106.2886,4105.8209,4105.6475,4104.2705,4096.7984,4106.8189,4110.7915,4110.2404,4106.1666,4114.5841,4109.1708,relax,
4104.1317,4101.7601,4104.938,4092.385,4095.032,4100.1624,4096.8338,4096.3358,4104.0807,4095.9585,4099.9908,4100.6729,4098.1238,4090.1876,relax,
4083.3803,4090.4133,4100.0446,4088.9804,4092.5944,4101.2072,4093.4626,4095.3469,4094.1424,4089.3381,4088.4295,4089.2303,4091.4171,4087.8919,relax,
4080.0965,4084.7839,4087.9847,4094.2974,4084.2409,4088.7808,4084.8282,4086.2819,4080.7624,4093.9929,4083.1538,4087.0254,4079.5254,4072.6926,relax,
4080.9929,4070.3182,4071.772,4083.3389,4082.3802,4082.152,4089.9829,4083.513,4086.0997,4077.0758,4084.2372,4073.6817,4077.4955,4071.2863,relax,
4066.7915,4072.0406,4075.7911,4074.2567,4080.1671,4078.5404,4087.7991,4076.6435,4073.7209,4085.0463,4066.5911,4079.0054,4073.0994,4071.784,relax,
4074.2897,4073.1266,4076.9084,4085.7469,4086.158,4079.3488,4088.9978,4079.3497,4081.3247,4081.8612,4082.5722,4069.2964,4079.9599,4071.3479,relax,
4077.2273,4089.2377,4083.0932,4078.2111,4091.367,4081.9227,4088.1345,4085.1403,4085.4257,4092.5359,4088.7648,4078.7268,4084.3458,4084.0539,relax,
4104.6079,4100.6426,4094.0874,4093.3813,4100.6922,4100.9635,4095.2517,4095.1501,4099.9476,4099.1946,4088.0254,4097.8418,4102.0941,4093.2455,relax,
4116.8365,4106.28,4112.8945,4106.4993,4100.646,4107.2959,4104.6149,4111.1109,4109.7388,4100.7534,4111.195,4115.8908,4114.6658,4120.7954,relax,
4128.9788,4115.3199,4120.7058,4125.7382,4117.2189,4108.4178,4102.9872,4102.8612,4113.7238,4111.6759,4115.3997,4116.8339,4114.7047,4123.6324,relax,
4120.8898,4119.7242,4112.4509,4123.1593,4116.7153,4115.2825,4100.7459,4112.5621,4105.2657,4113.7166,4120.6511,4123.2866,4120.9049,4128.411,relax,
4115.5909,4109.4287,4111.3043,4111.2214,4111.4703,4103.107,4109.1047,4105.7454,4105.5188,4104.3794,4109.2582,4114.6371,4111.8797,4117.9478,relax,
4099.9784,4099.2947,4101.443,4108.7769,4102.1154,4102.4045,4103.7882,4104.0458,4100.119,4096.9628,4102.9058,4099.4764,4104.9054,4103.3587,relax,
4098.8687,4098.297,4096.1255,4099.914,4108.4475,4089.6514,4106.6007,4093.0027,4091.6135,4093.255,4100.3106,4098.4444,4095.0325,4095.3999,relax,
4086.0461,4092.2806,4094.6574,4089.4465,4088.8568,4090.346,4083.1736,4092.1866,4093.3824,4090.0972,4088.4488,4094.1227,4091.168,4090.6352,relax,
4082.3651,4082.8035,4086.8588,4078.0038,4085.8608,4077.479,4086.1816,4095.8767,4081.4731,4081.5729,4083.1829,4085.0576,4084.951,4078.1778,relax,
4079.7057,4075.4536,4079.316,4083.9061,4077.2937,4076.1696,4086.1394,4084.7408,4082.2857,4082.2983,4077.1306,4081.0078,4063.643,4077.9988,relax,
4071.0289,4072.6041,4068.1741,4080.1238,4074.7136,4080.8288,4087.0265,4075.8564,4081.6602,4080.5987,4076.9018,4070.2132,4075.4561,4074.1475,relax,
4073.3707,4085.4773,4071.7409,4076.1434,4087.0966,4082.2767,4081.1101,4083.0715,4089.2018,4085.4617,4075.1525,4068.7935,4083.1126,4075.5547,relax,
4084.969,4084.15,4079.1171,4083.2421,4091.2234,4088.4209,4097.7249,4094.8189,4088.0268,4086.3131,4093.6884,4085.9145,4098.3547,4087.0454,relax,
4096.8524,4093.3921,4098.8653,4106.8315,4099.0514,4089.7867,4096.782,4098.1219,4105.2668,4101.7702,4100.4499,4103.0191,4110.4519,4106.5485,relax,
4112.572,4115.9299,4118.5025,4120.948,4109.6518,4106.4294,4107.5902,4104.2505,4108.3263,4105.2843,4111.7239,4108.1473,4116.5691,4118.7321,relax,
4115.1453,4121.6474,4117.4471,4122.2502,4116.4966,4115.7973,4111.7538,4105.2167,4103.1407,4113.0216,4111.5079,4120.4479,4112.7057,4124.8734,relax,
4122.2114,4112.1324,4114.3575,4117.014,4114.9953,4111.4083,4105.7811,4109.2045,4109.5832,4109.3165,4109.6837,4118.3818,4113.9747,4119.636,relax,
4105.267,4114.5887,4109.6899,4110.1759,4113.0866,4112.6079,4107.6553,4100.9231,4106.0407,4108.2865,4110.9351,4112.4985,4114.525,4115.9557,relax,
4109.5428,4106.9175,4101.1944,4101.6581,4101.4964,4102.8516,4098.5398,4100.4642,4099.8729,4099.4088,4104.5849,4107.6131,4110.7164,4108.7575,relax,
4094.4307,4101.0844,4090.2782,4097.6624,4093.7636,4093.7968,4103.9241,4094.3184,4096.9839,4098.3625,4095.8984,4090.556,4097.3123,4094.6306,relax,
4086.91,4088.2803,4089.8511,4090.7097,4084.3793,4091.6791,4098.5496,4083.8625,4087.0949,4087.6936,4081.1224,4080.7062,4084.5356,4091.9289,relax,
4077.2085,4077.0253,4079.3918,4084.098,4086.8552,4085.7764,4097.5589,4088.0506,4087.3406,4082.7912,4078.6962,4075.4058,4075.5965,4080.8804,relax,
4072.4997,4072.2279,4072.3801,4080.9185,4079.7163,4081.6479,4084.6003,4085.4312,4078.4863,4070.691,4068.8795,4075.1966,4072.443,4070.4833,relax,
4063.3826,4070.139,4072.7887,4075.5593,4075.2057,4075.9319,4090.3189,4081.6117,4080.1142,4074.1544,4072.2764,4071.2017,4068.7399,4070.6136,relax,
4071.8374,4075.8292,4074.8323,4073.7293,4077.1825,4084.7582,4081.7181,4085.0993,4083.6948,4084.8226,4083.6195,4075.4343,4074.1979,4077.2416,relax,
4093.1109,4089.064,4089.927,4090.1741,4091.3419,4094.7519,4091.101,4095.1338,4093.87,4100.5612,4088.0648,4094.7932,4093.6566,4084.7965,relax,
4107.6048,4106.6663,4102.1568,4093.6281,4104.9605,4096.4193,4100.1674,4093.7586,4103.9779,4094.6344,4101.1226,4102.3349,4104.1918,4099.4082,relax,
4119.2653,4116.7911,4114.261,4112.0045,4098.7016,4115.2775,4106.2354,4109.7303,4109.5886,4109.9366,4115.8973,4113.1556,4118.9329,4123.7285,relax,
4122.8105,4118.2584,4123.8365,4118.4588,4111.1445,4110.2382,4110.0241,4112.5717,4109.5897,4115.8045,4124.6557,4122.297,4118.6349,4124.2833,relax,
4117.316,4111.8364,4114.2032,4108.9896,4114.619,4107.9411,4100.602,4110.0471,4111.3019,4111.989,4109.1029,4112.7671,4123.3622,4116.6658,relax,
4113.47,4110.2618,4104.8525,4102.6207,4107.9961,4104.1479,4103.0072,4108.3038,4098.8965,4105.7737,4113.2035,4113.7682,4108.6656,4113.5247,relax,
4105.413,4098.5834,4096.4515,4104.9905,4100.6401,4107.4262,4097.021,4103.5801,4103.4699,4102.3963,4101.6475,4098.5807,4100.9179,4100.9411,relax,
4094.3734,4090.302,4095.4021,4101.7537,4091.3881,4097.0933,4087.5431,4097.1114,4096.0173,4091.2571,4096.8296,4094.8358,4101.7202,4094.7339,relax,
4087.1545,4086.2424,4081.9208,4098.0675,4090.0587,4090.9685,4090.9184,4084.712,4084.305,4082.6274,4092.9443,4088.4177,4085.4852,4079.8519,relax,
4073.7464,4078.9264,4073.6491,4084.3477,4080.6687,4083.5157,4085.7545,4077.4031,4087.8787,4084.0456,4071.9926,4077.0207,4078.0055,4072.9318,relax,
4072.3953,4078.8178,4074.3867,4070.3557,4077.2892,4073.087,4083.8024,4079.007,4082.1018,4083.2046,4079.5128,4073.831,4072.9769,4064.5142,relax,
4079.5591,4082.6899,4072.4737,4077.5928,4075.293,4079.3482,4083.0182,4080.5537,4087.9298,4081.1384,4073.3824,4071.215,4074.8278,4064.4669,relax,
4080.5749,4080.5702,4083.6284,4083.5385,4082.2805,4082.9085,4092.5206,4088.6906,4087.9706,4087.269,4081.7545,4075.6547,4087.9243,4077.8724,relax,
4097.971,4092.8431,4097.5015,4089.9894,4088.6987,4092.9733,4092.4158,4096.9894,4095.4649,4087.7777,4090.4891,4087.4777,4090.2054,4092.4461,relax,
4105.7351,4111.4186,4108.9148,4102.3774,4108.9699,4106.9743,4103.1363,4100.8965,4111.0783,4107.0115,4101.4749,4107.8876,4103.4213,4111.7978,relax,
4114.889,4113.6953,4114.6926,4116.3242,4106.5245,4109.8329,4099.359,4111.3627,4099.0592,4111.429,4115.4017,4115.1654,4120.6405,4123.5198,relax,
4126.248,4123.3768,4121.1879,4115.2455,4113.6645,4115.9784,4109.285,4099.8927,4104.8592,4119.8206,4113.4712,4117.4352,4122.6182,4125.5414,relax,
4120.0743,4115.7972,4107.6042,4122.3462,4108.4622,4113.4625,4107.9239,4105.2157,4108.0358,4109.3033,4120.0758,4110.9207,4116.8066,4125.065,relax,
4107.8893,4108.4001,4104.116,4113.7244,4100.3793,4106.9401,4095.3761,4099.7934,4105.2456,4100.4592,4106.1207,4103.4527,4108.6121,4105.199,relax,
4096.9314,4101.6156,4093.1422,4102.6632,4096.0454,4105.4922,4096.5889,4095.1622,4099.5365,4103.3006,4090.3965,4098.1934,4105.5835,4097.0144,relax,
4087.6794,4086.6063,4091.4489,4088.2223,4095.5904,4087.9255,4092.3031,4093.4405,4091.4993,4092.8442,4089.3929,4089.2733,4097.8852,4094.2533,relax,
4085.5078,4089.5008,4086.4072,4085.0321,4090.5219,4087.708,4096.6476,4090.5018,4088.8761,4094.4564,4089.554,4081.9802,4087.1933,4078.6982,relax,
4074.5648,4078.7103,4077.7518,4078.9819,4079.0934,4085.3293,4087.5906,4082.6702,4083.6438,4084.8869,4081.6134,4078.6088,4079.9063,4077.9714,relax,
4073.2843,4075.2902,4070.404,4076.851,4076.9394,4078.2955,4084.0509,4082.9181,4077.9271,4081.8493,4072.4879,4074.2818,4068.1403,4075.6764,relax,
4073.6994,4076.5131,4073.76,4071.2869,4073.8022,4081.7439,4081.9052,4084.6969,4085.6013,4082.1422,4072.7589,4076.2259,4072.2194,4073.3513,relax,
4083.4883,4080.8079,4088.13,4082.7132,4086.5799,4092.145,4088.9987,4084.924,4085.6629,4087.3882,4082.3036,4080.2566,4086.6741,4080.3227,relax,
4102.9522,4095.3564,4091.9164,4095.0186,4099.7246,4093.685,4100.4715,4096.0281,4097.581,4093.0972,4096.1298,4095.977,4100.1944,4094.138,relax,
4104.6533,4104.7007,4106.9949,4110.4678,4101.9595,4101.0237,4102.5316,4103.6704,4104.5922,4100.4023,4106.6672,4113.5214,4110.6855,4112.4344,relax,
4117.2145,4116.2159,4113.3129,4117.6782,4114.8979,4109.625,4107.0945,4105.2751,4110.0739,4118.1902,4112.5273,4119.191,4120.9776,4119.8619,relax,
4116.3716,4119.8902,4125.6693,4117.1001,4112.236,4111.1629,4100.8003,4110.5831,4109.4389,4108.7388,4121.4224,4115.7489,4118.9269,4116.6546,relax,
4117.7899,4108.3613,4115.696,4112.8257,4112.0291,4103.0743,4104.8797,4103.3356,4111.149,4102.1623,4110.7886,4116.7548,4114.6882,4110.3031,relax,
4112.6341,4106.9561,4111.2018,4104.054,4103.9387,4104.096,4100.581,4111.184,4102.2204,4105.1497,4103.1733,4104.984,4106.133,4105.3189,relax,
4095.6462,4099.1769,4097.5019,4107.2618,4097.4712,4095.4251,4100.256,4104.7894,4091.6482,4103.1109,4094.518,4097.2027,4093.4631,4097.5644,relax,
4085.2771,4089.0165,4089.8909,4091.2757,4093.7048,4093.9541,4092.9956,4098.4963,4093.5675,4097.5098,4092.3865,4088.6828,4086.0157,4079.6544,relax,
4080.3418,4079.1212,4083.0925,4089.9834,4078.0488,4090.3353,4082.6981,4081.3418,4096.5997,4090.1127,4072.9648,4088.5521,4082.835,4088.0434,relax,
4070.4543,4077.5703,4076.3773,4070.2419,4082.5364,4086.0828,4080.8161,4086.7451,4085.5262,4082.1076,4083.0645,4078.4687,4083.2394,4075.1983,relax,
4074.2059,4072.5836,4074.8298,4076.6041,4081.1555,4083.3921,4081.2358,4081.2198,4073.2171,4080.3014,4070.5461,4069.0395,4071.6254,4072.6661,relax,
4075.2965,4077.6077,4074.1143,4078.7238,4077.7123,4088.3511,4090.5244,4081.6361,4077.2296,4076.6376,4073.8855,4071.1088,4076.9731,4073.7214,relax,
4087.1734,4085.9688,4085.6037,4085.0259,4094.4213,4095.1122,4086.481,4090.8555,4087.6331,4087.1288,4083.9743,4080.1597,4084.1556,4087.5469,relax,
4104.6867,4102.5833,4099.5006,4103.927,4097.7226,4097.4165,4092.3437,4102.4013,4101.9598,4094.2298,4093.5165,4106.8945,4099.7043,4094.8749,relax,
4112.1198,4113.5775,4116.2634,4113.118,4113.5407,4109.3196,4106.8348,4109.9197,4104.4112,4104.7675,4104.2342,4115.0246,4108.4645,4114.3718,relax,
4121.5775,4116.7943,4117.5356,4120.0955,4118.5957,4109.4222,4105.9648,4116.8018,4111.46,4109.8762,4114.8118,4122.5722,4117.8,4121.5401,relax,
4115.8426,4114.8866,4123.4528,4117.6767,4116.0357,4104.1931,4106.6723,4110.2407,4113.6838,4120.326,4116.8036,4115.4326,4114.9589,4115.6402,relax,
4120.3083,4112.0449,4110.8498,4115.7327,4113.5018,4106.085,4103.7671,4107.0074,4100.5888,4110.1141,4113.861,4114.1533,4115.4993,4114.996,relax,
4107.1163,4110.725,4106.0399,4110.8394,4106.1036,4101.2011,4101.252,4098.7143,4107.1224,4113.7752,4103.3207,4106.7791,4107.1176,4106.7957,relax,
4097.0555,4100.0577,4091.7323,4093.8818,4098.0449,4097.2988,4097.6905,4099.2365,4101.8211,4092.8977,4094.6544,4101.8793,4097.8745,4098.47,relax,
4093.9287,4082.5782,4095.6028,4091.2591,4086.4756,4096.704,4099.5963,4098.4282,4090.8453,4094.3629,4092.6156,4084.1612,4100.1651,4085.1124,relax,
4088.6159,4082.1107,4082.6665,4082.4644,4091.5793,4093.77,4088.5898,4085.357,4083.8184,4088.669,4074.5762,4075.1724,4082.2725,4081.5822,relax,
4070.9838,4073.9603,4067.8744,4075.9714,4080.6053,4083.3181,4086.2925,4076.2035,4088.4089,4072.7791,4079.5978,4072.9604,4079.6199,4075.1239,relax,
4069.2355,4071.86,4065.4104,4074.8335,4076.4325,4076.6239,4078.0076,4082.5161,4078.7078,4082.8388,4073.0273,4066.1117,4069.9537,4070.0966,relax,
4067.2463,4082.4001,4075.3427,4078.3078,4082.7991,4085.7887,4087.4786,4081.8148,4080.2546,4090.1549,4070.4183,4072.2261,4073.5867,4078.1695,relax,
4087.7731,4089.0328,4083.9075,4089.7997,4086.155,4088.1426,4088.0905,4088.2356,4086.3785,4090.8527,4089.7006,4084.1165,4085.9203,4088.3547,relax,
4102.8979,4107.2845,4100.7571,4102.3342,4102.6761,4095.7798,4094.9314,4093.77,4101.4179,4099.2297,4102.057,4102.2917,4102.368,4104.8314,relax,
4113.9156,4116.1776,4116.4043,4106.0701,4107.5464,4113.9047,4120.515,4105.9789,4107.821,4101.941,4112.0765,4113.7008,4110.9189,4122.6169,relax,
4122.5893,4114.6784,4115.3173,4119.5394,4109.9453,4107.7052,4102.6414,4108.852,4113.8307,4115.726,4117.5599,4126.2711,4113.9031,4122.5191,relax,
4121.6573,4110.6872,4117.4514,4110.9348,4112.3572,4107.1418,4111.1681,4114.8997,4109.6074,4108.8568,4110.4545,4119.7975,4113.5444,4123.8679,relax,
4119.9558,4118.162,4119.2175,4110.3012,4108.9279,4103.2475,4099.6898,4107.9682,4100.6882,4111.0495,4106.4028,4111.1046,4118.186,4114.3432,relax,
4106.7067,4102.541,4107.3977,4101.8834,4097.8208,4097.2404,4094.2475,4095.4704,4103.8827,4101.2109,4099.1096,4107.1113,4104.3517,4106.4431,relax,
4092.0275,4094.1454,4097.3967,4094.913,4100.0237,4099.0934,4101.9901,4097.2232,4093.4351,4096.1838,4105.3074,4100.3435,4095.3855,4098.8483,relax,
4086.5132,4087.0889,4092.551,4090.7746,4094.1924,4097.7903,4089.5124,4092.7353,4094.6069,4093.6327,4087.5707,4088.2321,4096.0716,4085.1016,relax,
4080.5368,4082.7345,4074.3349,4084.7418,4079.5396,4086.4655,4091.9313,4085.0066,4079.5288,4084.8193,4082.0644,4080.5463,4081.6645,4079.814,relax,
4065.9975,4079.0463,4065.1153,4075.2608,4083.7687,4078.4551,4077.6369,4080.4324,4079.5638,4088.5654,4070.7044,4075.4673,4073.9476,4068.588,relax,
4064.7239,4068.5885,4073.6838,4078.1002,4084.7808,4076.7274,4074.1227,4084.914,4082.6572,4084.2608,4067.8264,4078.298,4073.8645,4078.3227,relax,
4075.6249,4084.37,4075.7073,4088.9722,4081.4422,4078.2115,4086.7935,4090.4074,4089.3463,4083.2533,4081.9653,4077.9783,4084.192,4080.6516,relax,
4087.6744,4094.3351,4090.1101,4095.7003,4090.4444,4092.5799,4090.4421,4086.4606,4087.3527,4096.4579,4093.4301,4087.0274,4092.415,4089.8208,relax,
4108.4293,4102.4485,4104.5549,4098.8661,4106.5653,4103.7012,4101.331,4110.6372,4106.3202,4107.6972,4104.8035,4102.5406,4106.049,4105.5491,relax,
4116.0729,4119.6149,4114.4693,4114.1602,4110.2268,4102.8618,4109.2887,4110.2374,4109.0768,4110.7497,4111.8754,4113.2256,4112.3563,4110.2374,relax,
4124.1651,4113.5828,4118.1397,4108.466,4109.9895,4113.7831,4109.8896,4109.6487,4112.5625,4105.8833,4120.3001,4118.2502,4119.0121,4123.7536,relax,
4108.4654,4122.007,4115.8778,4116.699,4109.3974,4107.3852,4113.2802,4103.19,4111.025,4108.6523,4116.5323,4120.8338,4119.0908,4121.3141,relax,
4109.2486,4108.7839,4111.7256,4113.3343,4107.8964,4104.6284,4104.9841,4107.7961,4107.2616,4109.6132,4106.9121,4114.0282,4108.3406,4112.026,relax,
4105.22,4096.7678,4101.3468,4102.6276,4101.0909,4103.4721,4090.3038,4092.9452,4104.1271,4103.3858,4109.3164,4101.8985,4106.8754,4111.8204,relax,
4085.1393,4087.8571,4092.426,4088.9432,4100.9608,4093.9057,4092.3052,4100.0496,4097.5785,4092.5688,4097.3583,4090.7328,4091.6956,4098.9947,relax,
4082.1958,4084.8266,4084.5631,4085.4116,4079.1464,4083.5086,4091.1831,4096.083,4092.4852,4087.2514,4087.1496,4079.6979,4085.7998,4084.6142,relax,
4074.7044,4081.7214,4080.1512,4083.0609,4092.6962,4086.7812,4078.2727,4080.573,4084.4011,4080.3218,4079.8458,4084.2407,4079.6613,4072.2282,relax,
4076.7233,4073.1879,4072.7904,4076.8505,4082.0529,4078.0569,4083.2424,4087.9742,4085.9267,4076.7252,4076.0637,4079.0993,4072.9573,4065.6255,relax,
4068.2427,4076.2421,4072.4354,4076.0232,4080.9359,4079.7888,4084.9205,4088.2211,4082.6036,4081.9934,4080.3613,4075.7695,4078.382,4062.7449,relax,
4078.7848,4082.3365,4079.4937,4078.7038,4084.3627,4082.6367,4088.3258,4089.6853,4084.6267,4089.1488,4080.0189,4077.6365,4081.0478,4077.044,relax,
4096.7897,4092.5081,4095.205,4097.2075,4087.4488,4093.8741,4094.8252,4086.958,4094.3071,4093.1931,4087.6862,4098.3932,4093.7019,4083.8074,relax,
4106.315,4105.4555,4106.7902,4102.7229,4099.5363,4104.3269,4098.4897,4106.2107,4105.2819,4104.7671,4103.4989,4107.6864,4106.9906,4108.816,relax,
4112.5727,4116.2145,4108.0555,4114.8921,4120.6013,4105.9109,4104.72,4111.2798,4106.4322,4106.5936,4113.4567,4117.7734,4119.7171,4117.1386,relax,
4119.5461,4117.7869,4117.0501,4117.9604,4118.0823,4108.2476,4104.8723,4109.2169,4109.2446,4106.8899,4111.4335,4112.4533,4118.5721,4118.9866,relax,
4124.9949,4116.7954,4112.0059,4109.0673,4108.1111,4103.6555,4107.0431,4111.756,4107.818,4107.1964,4105.5822,4110.1961,4115.5621,4117.3112,relax,
4110.6834,4102.5542,4112.3043,4105.133,4097.5413,4099.9237,4100.6721,4102.9417,4097.6947,4108.4172,4107.0809,4112.2063,4113.9993,4108.7453,relax,
4098.6309,4102.8582,4093.8098,4104.4517,4099.0697,4097.3954,4094.1485,4093.461,4097.8635,4101.1519,4100.0654,4091.5349,4097.8014,4103.2269,relax,
4099.898,4092.3712,4094.3552,4093.2613,4092.1818,4089.3292,4090.5399,4088.8443,4095.7883,4097.2008,4092.4896,4090.2858,4097.0086,4101.4237,relax,
4076.8272,4087.5194,4085.3415,4087.5368,4090.9723,4094.8464,4089.1588,4098.2772,4083.9718,4091.2489,4080.5379,4079.1175,4086.9556,4086.6979,relax,
4073.2391,4080.2456,4074.2848,4084.088,4076.9934,4084.5605,4086.5129,4086.2088,4083.7382,4082.4333,4069.3445,4071.3204,4081.9978,4078.3341,relax,
4075.8201,4073.7101,4079.186,4074.9542,4083.7322,4078.7599,4080.4787,4086.3018,4074.8481,4085.7088,4082.8811,4072.412,4078.9765,4068.2451,relax,
4070.7568,4075.6088,4071.4754,4079.4147,4084.0521,4084.0512,4081.3377,4077.2961,4083.1166,4079.0636,4070.1316,4068.8704,4073.5174,4077.8434,relax,
4082.6212,4079.3665,4077.9714,4080.1062,4082.3825,4087.6992,4092.7004,4099.077,4094.1197,4084.5326,4087.8374,4082.6836,4089.8493,4083.1561,relax,
4094.0187,4099.8569,4092.8321,4093.4861,4094.7475,4094.929,4087.672,4100.0529,4106.681,4091.043,4101.4119,4089.21,4095.6709,4092.6795,relax,
4111.6551,4111.207,4104.5416,4107.2675,4108.486,4101.2286,4108.7075,4108.8891,4103.0453,4111.2105,4100.1478,4107.2521,4111.2563,4114.6882,relax,
4124.6578,4121.2595,4118.4688,4118.1551,4111.6408,4104.6785,4112.2271,4110.8877,4110.0462,4109.2114,4123.1891,4114.5845,4117.6298,4117.4436,relax,
4121.3932,4123.0822,4121.2019,4115.2581,4115.6449,4115.0929,4109.0498,4107.5969,4108.4661,4104.8179,4122.6928,4116.7273,4113.9014,4118.2123,relax,
4111.892,4118.4316,4114.4652,4108.4494,4105.8618,4104.2646,4111.1298,4100.9176,4108.5953,4111.0412,4113.829,4115.7145,4113.4353,4107.0504,relax,
4108.1147,4104.7339,4101.924,4111.5345,4108.826,4101.8159,4103.7643,4102.3497,4095.7499,4102.0766,4109.228,4106.764,4102.73,4112.7064,relax,
4100.8395,4094.3904,4096.8901,4097.064,4094.2676,4101.1056,4095.6217,4098.3379,4105.2016,4095.5264,4094.3414,4099.1715,4097.2241,4098.1052,relax,
4087.1794,4085.2495,4089.6656,4086.6887,4088.2825,4104.2554,4103.0018,4102.8165,4091.6647,4088.2951,4094.0798,4087.1242,4090.3418,4087.0972,relax,
4085.6479,4083.318,4084.4797,4082.4298,4086.293,4080.3919,4088.3546,4087.5064,4089.31,4085.2062,4080.8811,4083.4994,4089.585,4081.4975,relax,
4081.289,4066.7738,4072.4413,4077.4511,4076.6907,4071.9433,4084.8362,4080.6637,4079.6827,4081.4544,4077.6567,4073.4199,4079.2584,4071.0171,relax,
4074.592,4078.0568,4065.7913,4071.7362,4083.0802,4075.3339,4080.1965,4083.1342,4084.434,4084.0841,4074.6651,4074.285,4074.4813,4076.5575,relax,
4072.9469,4075.2176,4074.0488,4072.4195,4076.075,4071.438,4089.9197,4091.8824,4075.3099,4084.6734,4079.2041,4074.0309,4078.2412,4072.5899,relax,
4094.3861,4088.8763,4081.6072,4081.8817,4093.6961,4087.6067,4088.7799,4090.2431,4088.9348,4092.805,4082.4469,4075.5584,4083.0221,4080.6022,relax,
4096.6341,4092.1466,4095.156,4092.7233,4101.8683,4093.5572,4096.7362,4103.4031,4096.5497,4099.5339,4102.5711,4101.2282,4096.4676,4095.0143,relax,
4118.5175,4112.0237,4109.0937,4108.4733,4106.899,4099.3013,4106.955,4109.202,4103.7894,4103.7427,4108.2336,4111.1712,4119.3392,4116.7551,relax,
4121.8831,4115.691,4119.4602,4115.3955,4107.4509,4109.3885,4110.8508,4104.8034,4105.834,4111.478,4114.5369,4112.2677,4122.9031,4125.8689,relax,
4129.3418,4116.1728,4121.2823,4120.9031,4114.1683,4115.6031,4109.6397,4107.0526,4112.8757,4113.9679,4118.7228,4123.3635,4118.6355,4120.1419,relax,
4119.6438,4112.0608,4110.1328,4114.9363,4099.5794,4111.8397,4109.2261,4105.8454,4111.9266,4106.5097,4112.345,4107.671,4107.7219,4116.7101,relax,
4104.7798,4100.5956,4109.3032,4104.0128,4100.0053,4101.6021,4107.4385,4105.7359,4102.4639,4105.2454,4102.0158,4112.788,4110.4113,4104.9891,relax,
4098.5178,4101.1999,4101.4408,4101.4077,4099.8401,4098.4136,4090.52,4102.7462,4095.6816,4098.0799,4097.2645,4101.7903,4095.8195,4093.0607,relax,
4094.9539,4092.7015,4095.8148,4090.2875,4092.9354,4095.462,4088.3266,4086.2121,4088.5525,4089.0176,4097.5938,4099.9127,4089.0764,4089.4558,relax,
4079.0744,4081.2566,4082.9731,4084.8443,4084.5758,4086.1694,4085.4459,4084.9345,4085.0105,4088.7516,4085.4259,4079.5045,4086.1153,4080.5938,relax,
4076.7427,4074.9249,4081.9677,4083.1217,4084.1311,4087.9165,4081.4134,4090.9561,4077.2515,4081.5458,4075.0787,4067.1364,4070.4996,4071.1747,relax,
4071.9419,4071.6329,4075.8255,4073.8838,4075.6525,4085.8321,4087.3042,4081.4924,4073.9453,4074.9945,4073.1267,4072.3764,4077.9076,4070.2795,relax,
4075.7357,4078.8669,4071.5654,4083.3588,4088.366,4085.2405,4091.0492,4083.857,4083.174,4087.7657,4078.1756,4073.8358,4084.2764,4073.9544,relax,
4083.4462,4087.7353,4078.8361,4092.7086,4095.4139,4085.4202,4088.4574,4098.5748,4094.2611,4088.6974,4087.8599,4089.012,4093.4625,4089.7589,relax,
4104.5726,4100.7389,4107.9803,4103.3785,4095.646,4098.2317,4106.4912,4092.0147,4095.5523,4102.232,4100.4995,4097.2684,4087.541,4100.9866,relax,
4120.2585,4109.1911,4109.3865,4114.7286,4114.1145,4104.2059,4104.7687,4100.0876,4107.7164,4105.5108,4110.951,4104.1787,4116.8595,4108.1557,relax,
4116.3508,4117.6953,4111.6124,4110.1391,4108.7032,4104.0932,4106.564,4108.9688,4118.2628,4115.9575,4106.7615,4118.8408,4115.205,4123.5712,relax,
4118.7764,4118.6518,4120.817,4113.7591,4104.8381,4108.8289,4111.0464,4110.8327,4109.7406,4114.1208,4114.9284,4113.0423,4117.9427,4123.488,relax,
4118.5635,4108.9012,4112.4285,4108.9027,4101.6876,4107.6694,4101.2668,4105.2838,4103.7232,4104.7163,4109.6108,4112.2595,4113.2238,4111.6881,relax,
4103.5379,4105.0913,4102.2923,4103.0176,4099.2452,4100.9925,4103.8004,4103.7529,4104.4684,4106.3971,4103.5339,4107.9408,4102.3378,4108.6959,relax,
4099.0206,4102.6544,4099.334,4098.7124,4097.2655,4093.9881,4093.4113,4099.3926,4090.8745,4102.2565,4096.8252,4098.4587,4099.8796,4097.0028,relax,
4087.0048,4079.7769,4089.4498,4091.3191,4084.5855,4091.5675,4091.0787,4095.6549,4083.9782,4088.2308,4088.2782,4084.5695,4089.1196,4079.1011,relax,
4069.6076,4080.6505,4082.2547,4078.8322,4086.3885,4086.8225,4089.2979,4087.3007,4078.7753,4084.9138,4082.6525,4086.0663,4074.7644,4087.8449,relax,
4071.5151,4070.4932,4072.6512,4081.1548,4080.7518,4078.5,4086.1953,4087.3588,4081.534,4087.37,4085.1286,4064.1008,4074.873,4079.2659,relax,
4072.246,4079.278,4074.5981,4069.6201,4076.9919,4080.5137,4087.955,4082.3604,4078.6341,4077.3612,4076.1552,4073.1378,4082.527,4069.6965,relax,
4071.5076,4081.2804,4079.1134,4081.0694,4080.6381,4086.1597,4083.8981,4083.6838,4081.9225,4087.4113,4074.6329,4077.6692,4077.7469,4079.4479,relax,
4088.9779,4094.0964,4087.1358,4092.6791,4093.0647,4092.5529,4098.9765,4094.8443,4093.2825,4096.3528,4092.4972,4089.19,4094.3212,4098.62,relax,
4103.1097,4106.7959,4105.1375,4103.8518,4094.4348,4099.0604,4097.6445,4106.5968,4097.1289,4107.293,4099.68,4103.8979,4102.6086,4103.1158,relax,
4111.1927,4120.4198,4120.2099,4117.9597,4113.5811,4112.5045,4112.1075,4104.0859,4111.1405,4115.5285,4114.5505,4115.0014,4111.3465,4116.3701,relax,
4120.1414,4106.9375,4121.8243,4122.9064,4115.1559,4112.3135,4106.6241,4108.5715,4117.219,4107.1742,4125.8669,4113.9182,4122.3327,4119.3304,relax,
4117.2916,4107.7038,4121.0347,4116.188,4115.0761,4107.8702,4113.3616,4108.745,4109.1601,4108.7891,4119.4278,4118.6939,4118.0087,4113.1683,relax,
4111.4125,4105.7499,4107.1708,4101.105,4108.3822,4104.9604,4104.1546,4100.1981,4106.1313,4102.0344,4108.1743,4112.9237,4111.2719,4114.0146,relax,
4100.2137,4094.3187,4103.4763,4097.2653,4099.1454,4095.4389,4098.6666,4102.2608,4098.8346,4095.5292,4102.1137,4103.4374,4102.1691,4104.0419,relax,
4099.2356,4101.1416,4097.269,4093.223,4096.3482,4089.418,4095.1526,4102.5549,4094.7619,4094.8543,4091.4904,4098.8809,4093.3526,4095.5032,relax,
4084.1805,4081.9729,4085.694,4083.625,4086.6186,4087.4608,4097.4671,4093.1702,4091.0061,4086.812,4090.0956,4085.8686,4091.7141,4084.6939,relax,
4083.9501,4078.418,4078.946,4078.993,4083.7805,4080.7191,4081.5653,4079.5069,4081.2785,4080.103,4082.0077,4076.0055,4078.7195,4082.314,relax,
4073.3733,4067.7469,4074.6228,4078.4087,4079.4305,4077.2063,4084.4495,4081.9768,4082.0674,4082.3255,4077.679,4071.0305,4067.5433,4071.3851,relax,
4070.3388,4073.1939,4074.1491,4078.0043,4075.5862,4084.2766,4084.3156,4083.5675,4081.1616,4088.6504,4077.6739,4072.5071,4067.5015,4069.7549,relax,
4080.5846,4075.6465,4079.4454,4082.6851,4088.0363,4079.5666,4086.2397,4086.0331,4085.6051,4086.5649,4085.6274,4084.4239,4091.1098,4079.5287,relax,
4094.6479,4092.7007,4092.7561,4089.8325,4093.2531,4091.4968,4089.2384,4094.9766,4091.848,4094.7817,4092.3156,4095.091,4098.9645,4094.9293,relax,
4106.792,4105.2804,4108.0864,4104.1144,4102.4339,4107.9146,4103.4976,4100.46,4104.082,4103.3577,4103.7488,4108.2396,4105.149,4105.8477,relax,
4121.8599,4113.5258,4122.7207,4109.4544,4112.5771,4111.3844,4109.3884,4109.144,4113.4194,4109.692,4112.9024,4115.8287,4124.2071,4114.8387,relax,
4126.272,4115.5167,4122.0265,4121.1886,4107.721,4108.0382,4112.9778,4114.3021,4109.2239,4119.6057,4115.6778,4121.4054,4123.9325,4118.9961,relax,
4124.499,4112.2319,4115.7091,4111.9246,4119.2797,4109.2314,4110.8311,4112.054,4107.4032,4113.5771,4112.2151,4109.1872,4113.7397,4118.0419,relax,
4100.9829,4103.4956,4108.5035,4108.8561,4107.4468,4104.2734,4100.6104,4105.5623,4098.8968,4107.7463,4101.0508,4112.4706,4104.651,4116.1605,relax,
4099.4682,4098.0784,4096.6692,4102.4329,4094.4893,4098.0655,4100.4,4095.1387,4095.4472,4097.2718,4094.7093,4097.8685,4100.4857,4094.9404,relax,
4092.586,4093.2726,4093.5768,4093.2178,4084.4085,4090.328,4095.4425,4093.5416,4089.3908,4100.1054,4098.1987,4087.3403,4092.3523,4094.7021,relax,
4090.2783,4076.7666,4087.339,4084.7041,4088.8407,4087.4935,4096.2957,4097.4583,4087.58,4084.471,4096.4666,4086.4988,4080.9749,4088.3063,relax,
4074.7385,4076.6716,4081.4132,4072.7465,4086.6603,4084.4518,4086.7771,4086.1313,4077.0817,4079.8268,4081.1396,4079.2415,4077.7393,4068.9178,relax,
4069.3169,4070.2618,4069.3554,4077.426,4080.8174,4074.5865,4082.1489,4084.949,4081.3834,4078.9146,4075.5447,4067.7058,4081.0083,4070.9049,relax,
4068.2645,4067.2661,4066.5961,4074.0879,4084.6052,4079.1521,4082.3285,4079.3262,4087.3949,4089.4444,4065.653,4072.201,4076.609,4073.7021,relax,
4079.0359,4080.973,4084.9691,4090.1334,4079.3087,4084.2626,4090.0767,4084.1411,4084.8416,4091.7487,4085.1978,4080.1659,4084.7831,4075.6484,relax,
4096.6521,4097.8018,4100.8014,4098.5542,4096.5443,4095.2163,4094.9959,4100.8939,4100.9457,4098.152,4096.1409,4092.5629,4090.593,4094.1794,relax,
4114.0053,4109.7543,4114.815,4107.1685,4099.0279,4102.1857,4107.084,4104.7337,4105.4312,4105.3565,4105.8985,4112.2647,4107.0021,4112.4758,relax,
4120.3258,4110.9079,4124.4572,4114.3821,4114.8698,4112.9007,4108.5116,4106.7675,4111.3573,4109.3861,4112.0502,4116.2672,4110.6448,4116.2136,relax,
4121.0393,4120.7585,4111.4622,4118.401,4117.6967,4114.8897,4114.7463,4104.4957,4107.491,4106.748,4121.9504,4128.2946,4112.1105,4120.9506,relax,
4111.0855,4106.4771,4110.9972,4118.2474,4107.0787,4111.4721,4109.2547,4103.2913,4113.6028,4104.7093,4110.273,4116.586,4112.7774,4115.4356,relax,
4111.4184,4111.319,4099.9786,4105.858,4108.8479,4109.6244,4092.2528,4099.2582,4103.6445,4102.1213,4108.627,4109.1422,4108.8931,4107.2262,relax,
4098.7272,4102.7623,4101.2957,4100.0904,4098.6276,4095.0049,4094.7569,4098.3044,4102.2079,4094.1459,4100.0611,4100.7562,4097.9965,4098.9663,relax,
4093.3878,4088.311,4096.8001,4084.8763,4095.324,4095.6663,4098.8428,4085.1498,4088.6487,4097.0068,4088.7394,4091.1236,4095.7463,4086.556,relax,
4077.8975,4079.7928,4083.0179,4081.865,4087.3049,4087.188,4090.7573,4086.1136,4089.8455,4090.4714,4088.4136,4084.9418,4082.0208,4082.4885,relax,
4068.5541,4078.0013,4079.5278,4075.9017,4087.5907,4086.228,4092.4999,4080.1591,4083.2007,4079.3716,4076.8689,4078.983,4081.3964,4074.0566,relax,
4068.702,4068.8137,4071.9235,4076.3362,4081.905,4084.1667,4080.2672,4079.7927,4085.7454,4080.4494,4068.3789,4078.5381,4070.4254,4073.2883,relax,
4071.6816,4075.979,4081.5099,4070.3121,4079.9938,4079.2972,4082.9385,4082.7799,4085.8946,4082.9964,4075.7094,4080.8613,4079.126,4069.4671,relax,
4082.2816,4082.5341,4085.6128,4084.6841,4091.1629,4086.5482,4089.6941,4087.2483,4086.2336,4091.564,4080.1852,4085.696,4088.5356,4089.0124,relax,
4095.4242,4103.6641,4098.494,4098.9082,4099.1493,4092.6315,4102.8986,4100.4442,4095.2777,4095.6717,4107.9705,4098.1182,4098.5061,4092.6537,relax,
4112.4265,4113.3594,4109.7816,4110.4634,4108.3991,4104.933,4109.0367,4104.2579,4106.0718,4107.0619,4102.6833,4114.2769,4114.347,4116.4573,relax,
4122.9441,4117.8006,4121.331,4127.0382,4107.698,4113.5167,4111.0458,4112.4526,4105.3945,4120.1607,4121.2963,4118.2263,4125.4502,4121.8274,relax,
4129.4782,4118.8655,4110.9546,4115.8946,4110.188,4105.5035,4105.0445,4110.1223,4108.0039,4116.0055,4109.2638,4118.0123,4119.8825,4122.6259,relax,
4112.6826,4113.744,4109.2749,4108.3341,4102.4322,4112.5907,4104.2278,4101.8686,4106.2034,4113.5614,4118.1762,4109.8401,4119.8987,4114.719,relax,
4111.0285,4108.6901,4102.5238,4101.5924,4095.9965,4102.4056,4103.0658,4100.6115,4097.2993,4104.4875,4107.5803,4106.2647,4102.679,4107.7832,relax,
4093.9587,4098.6145,4099.0922,4101.6186,4104.5343,4104.4134,4100.4344,4094.7706,4099.703,4091.4608,4097.3476,4097.0878,4095.5031,4099.7374,relax,
4087.3596,4097.9623,4088.9429,4098.0741,4092.7326,4087.876,4092.8594,4100.9792,4091.2426,4091.9361,4092.6779,4092.8197,4092.9293,4082.3177,relax,
4077.4284,4080.1072,4093.763,4080.2919,4086.5387,4097.3755,4089.8913,4093.2464,4090.0185,4079.6526,4081.6274,4080.6172,4075.0159,4072.0363,relax,
4076.9104,4083.3724,4070.4972,4077.0675,4087.0536,4086.3597,4078.3464,4083.8449,4083.7945,4073.7061,4075.3685,4072.5344,4066.4703,4069.7341,relax,
4070.5001,4074.8098,4066.8713,4077.3524,4078.564,4079.8703,4080.1048,4073.7909,4083.8516,4081.2208,4075.0927,4069.9603,4067.6993,4071.6141,relax,
4072.7117,4079.4476,4078.9767,4076.8488,4079.3596,4082.4811,4086.1751,4077.9577,4083.8934,4076.4648,4077.397,4085.5235,4073.1717,4070.4768,relax,
4085.018,4086.8866,4082.1987,4089.8953,4092.571,4092.4267,4092.535,4090.0576,4086.6099,4090.159,4090.6258,4084.0219,4086.9388,4086.7069,relax,
4111.3687,4106.0677,4107.219,4103.8637,4097.5823,4102.2371,4105.3815,4095.3199,4100.0312,4100.5563,4103.2932,4106.4736,4100.7623,4101.6843,relax,
4128.1339,4111.2724,4108.4837,4112.1872,4106.2546,4107.0463,4105.6829,4097.0303,4108.067,4109.4215,4116.3698,4114.6657,4117.8185,4122.1054,relax,
4123.8496,4120.5061,4118.3695,4119.089,4111.1572,4102.0577,4108.8836,4113.9464,4114.9937,4111.4065,4113.4323,4118.6268,4118.5175,4117.0696,relax,
4116.1181,4116.9291,4119.0795,4117.6274,4108.2347,4102.7757,4107.7816,4112.4768,4104.5876,4108.0321,4112.6348,4124.8018,4121.6836,4118.8226,relax,
4116.4348,4108.424,4111.8014,4102.5002,4103.1686,4102.5772,4100.3334,4107.2317,4102.4164,4111.1154,4112.0832,4112.8873,4115.9233,4114.33,relax,
4101.8172,4101.8961,4106.6416,4097.8315,4105.1855,4100.3903,4102.9816,4100.9779,4098.0797,4107.8982,4101.9604,4105.1844,4101.4976,4101.4495,relax,
4096.3767,4093.9919,4095.7526,4096.5381,4093.8714,4099.9379,4098.4007,4087.7829,4092.3444,4094.5089,4092.0716,4093.0773,4098.5769,4097.9455,relax,
4080.875,4083.1722,4089.0314,4087.8504,4093.7233,4088.1856,4091.6295,4087.9977,4089.6695,4092.8507,4090.5953,4083.5816,4092.5485,4087.0772,relax,
4080.4207,4082.4796,4078.2383,4085.6227,4082.0076,4084.0932,4082.113,4080.8096,4094.393,4084.2476,4080.4969,4087.5646,4073.7866,4083.556,relax,
4072.8354,4074.1931,4072.8519,4075.4837,4086.501,4085.5653,4082.9068,4080.2825,4081.605,4076.501,4073.4302,4072.5797,4071.7059,4069.2582,relax,
4068.7974,4069.1837,4078.3858,4066.8918,4082.319,4083.2256,4081.8913,4081.9522,4081.1032,4079.6921,4078.1902,4074.4785,4071.7062,4066.2972,relax,
4077.7147,4081.0915,4081.162,4078.1586,4093.3982,4077.3531,4093.2103,4082.6021,4083.8507,4090.4956,4087.8123,4084.2458,4081.992,4078.0862,relax,
4084.1299,4085.6832,4089.8876,4093.3755,4094.8414,4095.5975,4098.3,4098.3911,4092.3721,4083.5951,4094.9861,4089.3128,4088.5146,4090.3584,relax,
4100.1657,4103.3135,4098.8019,4094.1837,4099.1483,4107.4348,4101.3307,4103.9516,4101.128,4103.5712,4095.8912,4101.6732,4100.7073,4099.8457,relax,
4117.8688,4116.4071,4117.1017,4112.8932,4112.4957,4109.0866,4108.2194,4104.797,4111.0238,4111.3847,4109.0144,4113.0748,4119.1163,4112.1755,relax,
4120.3401,4122.9588,4122.6154,4120.7093,4115.0559,4110.16,4102.4058,4117.7372,4114.8436,4109.1004,4117.2895,4117.391,4118.4692,4124.3661,relax,
4116.2462,4123.8768,4115.8921,4112.6544,4115.4852,4105.21,4108.5063,4116.4654,4110.222,4111.6631,4112.1587,4113.5024,4115.4202,4128.1907,relax,
4115.3189,4111.9121,4113.1576,4112.3509,4104.6938,4105.3226,4103.8799,4105.9333,4101.5276,4100.796,4105.5672,4111.9557,4105.3715,4114.7304,relax,
4098.3294,4101.2238,4096.8335,4103.9842,4094.2977,4092.1095,4099.8471,4100.8938,4103.2175,4101.1256,4103.2227,4103.1044,4102.9057,4108.4208,relax,
4093.431,4090.5894,4099.653,4098.4939,4097.1981,4092.7977,4097.0351,4101.8572,4093.0707,4097.5957,4089.2721,4090.716,4098.4135,4096.9221,relax,
4084.1813,4082.4923,4083.4417,4095.8507,4089.5768,4093.2165,4092.9142,4091.6682,4091.534,4088.0263,4092.1839,4086.772,4085.5661,4087.7353,relax,
4076.931,4080.9366,4075.2133,4073.7842,4075.1056,4078.7555,4082.1438,4083.8456,4084.6721,4085.8099,4083.0287,4073.8851,4086.9257,4076.6126,relax,
4068.6099,4073.6173,4074.0748,4077.4144,4077.8034,4087.1494,4076.7695,4084.9118,4084.0792,4079.8023,4072.2063,4073.3227,4077.7167,4071.3175,relax,
4068.746,4065.6884,4074.0581,4068.0722,4084.2918,4077.7956,4087.5354,4086.8741,4080.7887,4079.0827,4083.675,4071.7929,4072.6619,4068.9721,relax,
4075.6521,4080.7694,4079.4268,4071.3671,4080.7009,4090.6936,4090.4162,4096.3178,4078.9094,4076.9504,4086.4368,4075.8295,4084.2507,4076.0609,relax,
4097.545,4091.9324,4092.4933,4099.4572,4097.0009,4091.5129,4083.2496,4100.6933,4093.6688,4095.0428,4089.8153,4092.611,4089.9551,4090.0514,relax,
4098.1329,4109.6808,4108.1088,4102.5914,4108.4361,4102.4347,4100.5871,4098.2339,4109.4514,4112.2691,4101.5643,4103.0938,4105.6615,4111.3318,relax,
4119.2214,4115.5681,4120.3184,4115.2329,4109.6193,4109.0718,4106.5037,4111.9467,4109.7253,4110.6009,4114.3691,4120.8771,4114.5999,4126.7486,relax,
4118.4816,4112.9399,4120.8315,4118.167,4110.8929,4124.7279,4111.2397,4114.5086,4114.0303,4113.9765,4113.0733,4120.5062,4120.9933,4116.6826,relax,
4108.6084,4120.1025,4118.6325,4115.2722,4108.8697,4112.3722,4101.807,4105.0003,4106.7926,4114.6976,4112.3865,4113.6552,4118.5656,4121.6691,relax,
4109.394,4109.8622,4103.6723,4104.8532,4101.1891,4103.2534,4106.2912,4100.2287,4107.1393,4108.2182,4103.5231,4117.4339,4107.2094,4105.5548,relax,
4097.4194,4102.3871,4099.9589,4100.6455,4089.9392,4095.4677,4092.7855,4101.8923,4096.5609,4097.063,4100.3604,4105.5476,4104.0429,4104.765,relax,
4089.5035,4091.636,4092.9671,4089.2538,4093.4387,4094.185,4097.0921,4086.5803,4092.639,4094.1277,4100.3349,4095.3698,4090.8508,4089.6445,relax,
4086.5311,4087.1841,4081.2284,4086.6714,4094.299,4091.1426,4086.6659,4083.8318,4091.2518,4089.0898,4090.3086,4089.9621,4082.4357,4083.902,relax,
4072.0331,4071.023,4076.1052,4082.9206,4083.369,4083.7018,4079.2925,4085.9445,4083.7582,4082.9373,4078.0289,4075.9572,4080.2268,4077.1007,relax,
4062.9271,4074.7045,4071.1675,4075.979,4082.5461,4083.4551,4090.0493,4081.878,4083.3753,4075.3897,4078.1446,4066.9917,4076.9769,4066.1027,relax,
4066.5665,4077.0044,4076.6321,4083.3779,4079.1347,4079.4035,4083.1259,4078.3646,4078.1755,4080.9733,4071.5901,4064.9027,4068.7271,4072.0111,relax,
4076.3006,4086.7934,4085.5343,4086.6719,4085.6136,4087.4917,4083.2813,4089.6239,4090.4472,4086.6971,4078.8966,4075.6005,4082.0241,4080.2895,relax,
4104.562,4090.3418,4089.7199,4097.2838,4094.0957,4107.1577,4091.0681,4102.1364,4092.2957,4095.9254,4094.9187,4092.1684,4101.3944,4098.245,relax,
4107.0954,4114.228,4106.3377,4113.29,4106.2762,4101.7964,4104.0184,4100.362,4097.9413,4111.0439,4105.5418,4106.6364,4103.3394,4111.9388,relax,
4112.1156,4113.1287,4119.0872,4110.5793,4113.9537,4113.1227,4112.1652,4107.5827,4107.5416,4108.7835,4122.911,4120.4894,4118.3148,4121.7681,relax,
4128.9411,4124.3141,4112.8795,4117.4867,4119.6145,4110.5154,4108.998,4106.3959,4113.3658,4110.9348,4121.7302,4115.3618,4117.259,4122.3137,relax,
4114.9407,4112.7166,4115.6989,4111.0792,4109.5428,4102.8231,4111.5245,4098.9938,4105.5883,4114.672,4103.7337,4123.152,4111.6035,4115.2514,relax,
4108.1146,4111.0105,4106.6046,4108.358,4107.6448,4109.553,4103.2766,4099.896,4098.4086,4101.0172,4104.4256,4104.8536,4109.8356,4100.3143,relax,
4096.84,4102.1924,4097.6866,4098.3077,4100.7623,4104.0106,4102.6513,4094.747,4090.5072,4098.3847,4094.6573,4097.2275,4095.7061,4103.891,relax,
4088.7939,4090.6616,4095.0944,4093.5912,4091.5968,4093.9726,4099.4702,4096.6035,4092.2978,4094.6014,4092.5217,4096.6257,4090.0603,4093.3148,relax,
4090.4916,4080.448,4083.1324,4091.0929,4094.4615,4090.9987,4090.3031,4088.4438,4080.6698,4083.5134,4089.1421,4081.2297,4082.6424,4082.8807,relax,
4073.5319,4074.946,4067.1223,4080.1478,4081.9415,4083.8795,4083.009,4087.2895,4079.4489,4087.8895,4081.7543,4079.7718,4075.8617,4065.1214,relax,
4065.7929,4066.138,4072.2621,4076.7864,4087.5964,4077.6458,4080.5244,4075.9842,4091.4162,4081.8716,4080.3722,4070.4496,4071.9125,4068.9809,relax,
4063.815,4072.6827,4074.687,4078.7558,4085.9207,4083.2543,4081.5468,4080.5937,4079.6325,4088.6326,4078.4169,4074.6885,4082.239,4075.3468,relax,
4085.6407,4080.6661,4088.6267,4081.5671,4087.7955,4083.6109,4096.0981,4091.8389,4087.2438,4084.1873,4084.2732,4085.7251,4077.3564,4087.0236,relax,
4102.989,4098.3807,4100.413,4102.5642,4100.7527,4098.9438,4095.217,4096.1372,4097.7764,4089.6619,4099.9346,4093.9342,4099.4921,4099.1426,relax,
4111.9743,4104.0821,4113.8111,4110.8471,4107.6116,4107.4964,4101.6028,4109.7536,4106.5326,4110.4312,4106.2953,4109.1417,4112.4206,4114.4658,relax,
4121.1598,4123.1565,4112.6351,4116.3406,4106.5754,4118.0517,4110.2596,4115.2979,4117.5963,4109.6012,4114.5893,4124.7694,4115.0345,4120.6362,relax,
4119.4745,4113.5195,4127.102,4118.8594,4110.4605,4105.638,4108.4979,4111.6516,4118.1118,4120.288,4116.8031,4125.5343,4118.9421,4124.7442,relax,
4115.8267,4110.6347,4119.5489,4110.2872,4105.5275,4103.8007,4109.3856,4108.9363,4110.514,4108.7948,4105.5476,4118.4012,4115.449,4116.5684,relax,
4102.8154,4102.1975,4108.1559,4101.3467,4105.2817,4103.0027,4103.1221,4105.3137,4105.4857,4103.7725,4100.7668,4104.6362,4110.5806,4107.3157,relax,
4104.8063,4091.8832,4103.6754,4093.3692,4091.4389,4093.3906,4092.8264,4103.2196,4093.1636,4098.8005,4096.5261,4091.114,4099.3137,4098.3945,relax,
4084.2066,4094.0483,4086.1786,4083.3535,4095.7033,4090.1548,4087.7495,4090.12,4089.485,4091.2917,4085.6062,4094.1293,4091.8078,4088.1148,relax,
4087.492,4082.9135,4083.2164,4082.9692,4085.9878,4091.6161,4085.7688,4091.2799,4083.7771,4083.4694,4079.7103,4075.724,4084.2539,4075.2661,relax,
4076.5982,4079.3364,4073.4096,4080.3611,4083.155,4086.169,4079.8283,4085.6489,4086.6204,4080.2525,4079.0986,4072.4364,4084.508,4076.3181,relax,
4069.0848,4078.53,4071.5039,4076.5336,4082.2658,4086.5607,4081.1574,4090.4335,4084.3301,4083.4012,4078.5428,4076.4985,4074.9912,4070.5976,relax,
4080.4707,4078.5991,4079.659,4074.8109,4088.4254,4084.8003,4090.7347,4087.2193,4082.9679,4085.3676,4075.4237,4069.1764,4073.2939,4079.6441,relax,
4083.6652,4085.5882,4091.2361,4090.5545,4087.0872,4090.1919,4089.3762,4094.5683,4092.2253,4086.2989,4083.3944,4081.0498,4089.9941,4089.4434,relax,
4103.1704,4098.0452,4096.9371,4104.2211,4089.4435,4101.7615,4097.5783,4097.6431,4108.6595,4102.5939,4101.8237,4101.3289,4095.9274,4097.7139,relax,
4108.5839,4112.7208,4108.7022,4111.3589,4106.954,4110.0331,4106.6599,4105.2595,4107.1404,4104.6293,4113.2469,4113.9526,4121.4759,4119.9106,relax,
4122.5014,4123.332,4115.1878,4114.3255,4106.8205,4114.6495,4112.2091,4105.3822,4115.738,4113.9154,4112.3355,4119.0286,4117.7443,4129.2997,relax,
4119.3483,4120.1334,4118.5135,4122.1459,4108.6003,4113.8538,4108.5344,4106.5761,4110.8542,4117.9431,4118.086,4115.6247,4114.4118,4123.9542,relax,
4118.327,4108.2682,4108.4895,4107.1764,4102.5545,4108.9274,4105.9677,4103.1741,4099.662,4105.465,4105.4231,4114.8447,4113.2512,4115.6921,relax,
4103.8695,4107.0058,4107.6189,4104.9827,4106.7578,4100.6496,4095.8774,4095.4108,4107.8136,4096.7337,4104.9535,4104.1711,4103.1998,4109.7361,relax,
4101.9672,4093.1978,4096.7382,4096.7513,4090.4373,4098.5572,4098.1274,4095.8653,4102.0042,4089.3496,4099.0849,4093.8825,4091.8276,4098.9395,relax,
4086.8566,4086.4165,4094.8641,4083.9277,4085.8042,4087.7886,4092.7095,4091.4484,4090.5353,4086.7169,4085.1745,4089.321,4081.1575,4089.6899,relax,
4077.5647,4085.1734,4081.7524,4084.0483,4085.8056,4076.7412,4088.5349,4086.3436,4089.8602,4081.64,4078.1811,4084.2884,4077.6349,4081.6323,relax,
4066.5324,4074.4598,4075.4821,4076.0674,4079.4742,4085.0045,4075.5924,4080.0965,4074.7496,4076.8375,4073.5179,4075.3537,4073.7023,4074.1305,relax,
4074.8133,4079.0867,4071.1502,4063.419,4080.7046,4085.2442,4077.6854,4080.0957,4083.2068,4081.437,4077.7536,4074.4805,4065.6217,4073.3687,relax,
4074.3219,4087.4862,4084.7026,4079.8993,4088.7689,4081.5703,4087.5629,4087.9495,4087.8282,4077.8054,4088.8744,4079.5013,4083.6327,4075.2185,relax,
4089.8278,4090.0043,4090.6456,4090.1561,4094.7284,4101.3419,4086.8638,4089.9105,4084.7344,4090.9727,4090.4131,4092.0438,4088.3529,4082.2561,relax,
4101.3413,4105.6763,4103.9379,4111.4431,4108.4597,4101.3222,4103.6378,4103.3544,4107.8485,4105.3632,4102.9676,4101.0686,4101.0073,4105.1979,relax,
4114.1575,4111.3465,4116.7731,4106.9665,4106.1104,4117.2106,4098.6597,4110.9163,4109.8151,4106.3512,4116.3398,4110.7735,4115.6305,4116.6781,relax,
4121.671,4118.5075,4122.4618,4119.7506,4118.2505,4109.5124,4109.3038,4111.8053,4114.1453,4106.6556,4116.2642,4122.5322,4125.8663,4115.102,relax,
4123.2344,4111.1116,4118.7302,4114.4976,4108.2164,4108.8799,4109.8209,4111.7494,4109.5297,4114.674,4109.5414,4114.3703,4110.492,4119.6633,relax,
4113.0848,4112.8277,4110.773,4111.8213,4098.9053,4106.0577,4101.2064,4106.4929,4103.5989,4106.2294,4114.7968,4115.7493,4109.8722,4108.357,relax,
4106.399,4101.4066,4101.3243,4099.8407,4097.0059,4100.9197,4104.2699,4103.6408,4098.218,4093.8065,4094.3405,4103.0996,4097.9729,4103.1956,relax,
4094.5962,4097.7893,4086.0269,4094.2298,4095.1901,4093.5819,4095.5316,4092.0201,4093.3256,4098.5318,4090.8559,4095.8577,4097.1819,4092.6269,relax,
4085.0772,4083.2151,4087.8433,4084.538,4084.9285,4092.5446,4091.9403,4092.9322,4082.8825,4082.4407,4084.9515,4084.072,4086.1921,4085.0836,relax,
4075.8194,4072.2475,4083.8543,4084.2121,4089.6988,4081.0655,4080.6406,4084.2526,4080.8751,4083.4414,4081.6001,4080.8005,4071.6122,4075.3066,relax,
4071.9311,4081.1303,4076.0389,4074.0889,4081.3942,4087.3524,4084.0082,4082.6009,4090.4233,4081.1921,4079.222,4075.4198,4071.6732,4071.2214,relax,
4069.915,4076.596,4073.2704,4072.8818,4079.6047,4082.935,4084.1532,4077.2089,4085.3621,4084.717,4075.656,4074.5191,4079.5777,4073.7003,relax,
4078.9684,4076.5966,4087.5355,4082.8137,4083.0785,4084.1821,4086.3471,4079.9087,4087.4593,4090.0197,4080.7694,4083.3058,4079.8602,4078.5786,relax,
4092.4127,4095.8613,4092.5493,4099.2749,4090.698,4094.684,4103.0531,4100.1094,4089.8273,4092.2445,4097.5841,4090.366,4093.225,4093.5629,relax,
4104.2183,4106.827,4103.7348,4109.3826,4106.0345,4105.1239,4106.3305,4101.7288,4103.7623,4107.6397,4100.4812,4105.023,4103.145,4114.5493,relax,
4120.7737,4115.9717,4121.0509,4121.397,4107.6944,4109.996,4111.4559,4112.2581,4103.4808,4111.7838,4111.7445,4115.98,4116.5756,4115.9731,relax,
4120.5868,4122.205,4121.9379,4119.6216,4108.8641,4109.9426,4115.618,4109.7108,4111.7981,4105.4967,4113.4388,4118.899,4116.8042,4119.0767,relax,
4116.6113,4110.5709,4124.0149,4103.7293,4111.6208,4110.0268,4106.1398,4103.6699,4109.207,4107.601,4113.444,4113.6814,4105.3384,4121.9255,relax,
4114.0044,4109.2775,4112.2591,4113.4776,4098.2845,4104.8912,4099.3787,4102.0648,4103.1181,4109.008,4104.664,4117.5014,4106.0944,4105.5712,relax,
4098.283,4098.0011,4099.4635,4098.3495,4096.6345,4098.7104,4093.9135,4094.532,4096.0839,4098.9416,4091.0088,4102.9288,4106.2781,4098.3502,relax,
4093.8519,4091.245,4085.3985,4092.0985,4097.9398,4094.1907,4095.0834,4095.4176,4097.3568,4093.2985,4095.5959,4098.5233,4089.4844,4091.7154,relax,
4087.9892,4086.9651,4086.8531,4089.3467,4085.5357,4087.6509,4083.3368,4083.0254,4087.5499,4095.532,4089.8368,4080.8851,4083.3587,4089.0767,relax,
4073.0366,4079.7598,4071.5137,4078.1475,4084.9482,4084.8089,4084.9754,4082.1502,4083.5819,4084.7674,4081.1889,4072.0977,4078.3687,4071.992,relax,
4071.1263,4068.1558,4071.2015,4082.6639,4083.7141,4076.3346,4080.2892,4083.0858,4083.1355,4067.8483,4081.5694,4076.3543,4074.9157,4072.2994,relax,
4074.2425,4072.1529,4074.7284,4075.8025,4076.1854,4081.1329,4081.5739,4080.3265,4079.4511,4080.4745,4072.9803,4072.2523,4071.2454,4074.738,relax,
4079.2581,4087.3841,4074.1522,4082.4891,4091.9222,4078.7108,4095.386,4085.7063,4085.2171,4079.0306,4079.7664,4080.5671,4084.3599,4075.1954,relax,
4092.0029,4094.478,4095.4762,4096.7386,4093.0221,4099.3485,4092.8897,4090.3391,4097.1561,4100.992,4105.4709,4095.875,4094.1423,4097.6913,relax,
4110.8942,4108.5287,4105.1431,4109.6621,4108.9842,4105.0634,4106.9356,4105.8888,4104.7285,4114.5606,4107.1041,4109.0613,4108.4017,4115.4129,relax,
4126.1864,4119.0218,4118.2042,4121.0044,4118.8466,4109.2077,4114.5931,4101.6669,4116.2077,4111.4224,4110.879,4118.5871,4122.0529,4115.5358,relax,
4122.0053,4117.4934,4127.9028,4118.0169,4116.1227,4116.7256,4110.7816,4107.7769,4104.5988,4116.1356,4121.8375,4121.5278,4120.2123,4122.3026,relax,
4105.4296,4110.8602,4116.7059,4117.5395,4116.6657,4109.0643,4108.6511,4103.7859,4106.0688,4100.6745,4104.1393,4109.8206,4104.5382,4115.4713,relax,
4101.9224,4111.0799,4106.4982,4104.4624,4105.9405,4099.1042,4102.1137,4100.6739,4100.2986,4104.9146,4107.2497,4111.7096,4109.8052,4114.0504,relax,
4099.6108,4098.7554,4098.6138,4102.4298,4095.3856,4102.4166,4096.0784,4092.9119,4096.1301,4098.6611,4104.2033,4102.6522,4101.1335,4104.3608,relax,
4097.4937,4089.9904,4091.9154,4089.1419,4091.5277,4094.0638,4092.8251,4090.3378,4095.8868,4087.7946,4093.9826,4089.7286,4091.5253,4088.693,relax,
4087.9823,4085.8018,4084.1484,4086.837,4085.9404,4090.267,4091.8962,4096.4364,4089.1219,4090.0858,4083.8432,4080.2195,4078.4949,4082.4063,relax,
4070.824,4081.442,4070.5387,4080.2844,4082.5599,4081.9428,4086.6473,4081.2409,4080.2224,4081.3725,4077.4353,4072.3801,4079.4452,4067.5408,relax,
4071.6844,4079.1435,4064.5955,4075.0582,4079.8684,4078.7495,4082.9566,4079.4453,4079.4368,4079.5929,4079.6263,4076.0067,4074.0137,4072.0678,relax,
4069.6968,4073.7543,4071.0001,4081.2966,4087.3559,4083.5106,4078.4947,4078.174,4086.3773,4081.4855,4074.6645,4079.8169,4082.9043,4078.2038,relax,
4082.2278,4089.4562,4085.0863,4086.9973,4089.7858,4084.5542,4085.8498,4087.6828,4082.5537,4092.6621,4086.1625,4088.6246,4082.0865,4088.9121,relax,
4095.8856,4108.9081,4103.801,4093.8188,4101.9002,4095.1341,4091.5882,4100.9409,4101.7892,4096.8823,4103.2615,4099.7828,4106.1726,4095.2698,relax,
4122.6964,4109.1976,4115.3764,4120.0455,4107.131,4104.3024,4099.9614,4113.8163,4109.7936,4106.4686,4110.597,4104.8079,4108.9469,4113.9707,relax,
4123.4257,4118.1581,4121.6644,4113.8605,4114.676,4112.5202,4109.5891,4110.751,4111.3007,4118.1805,4118.3234,4115.9584,4114.5056,4121.6878,relax,
4115.0074,4119.1119,4116.2051,4107.6175,4108.2994,4104.4225,4107.1564,4102.4671,4112.729,4113.1882,4116.1753,4116.8656,4119.2447,4112.5439,relax,
4117.6798,4106.7948,4109.854,4112.9702,4112.2842,4109.3731,4105.5242,4100.5378,4108.3272,4113.507,4111.5736,4109.6003,4108.6741,4121.2213,relax,
4101.2954,4100.8996,4110.5421,4101.3941,4104.3411,4104.2237,4102.4524,4105.5716,4099.1448,4107.6007,4101.414,4107.065,4099.55,4111.2698,relax,
4107.5696,4099.7032,4095.4741,4098.5038,4093.9724,4090.1228,4095.2726,4097.257,4096.3081,4095.3976,4102.0605,4092.093,4101.0087,4097.9879,relax,
4085.5727,4088.1338,4085.2078,4091.764,4095.5006,4090.8405,4092.8587,4089.0362,4091.5426,4097.238,4084.7381,4085.2716,4086.2377,4090.2723,relax,
4076.7889,4082.8282,4077.8852,4082.6502,4088.4722,4075.6481,4084.0072,4087.0847,4085.5712,4083.9528,4078.626,4089.5721,4079.9906,4078.9283,relax,
4075.3968,4069.7306,4073.5504,4077.8845,4080.8228,4084.1454,4080.1781,4084.2453,4086.8225,4077.3184,4077.4793,4078.3914,4073.5707,4080.0044,relax,
4067.573,4072.4478,4071.6057,4075.7832,4076.7856,4085.4686,4079.3763,4080.3473,4086.7764,4080.8498,4075.2089,4073.7497,4078.453,4073.6006,relax,
4071.7213,4073.9938,4074.6346,4089.4182,4081.1671,4080.3681,4088.3287,4078.1053,4082.6146,4077.4442,4077.3158,4076.6988,4075.5724,4076.1878,relax,
4092.3001,4086.9538,4090.3012,4085.8784,4091.6299,4090.1953,4097.1168,4088.2136,4089.6434,4090.4202,4091.4611,4086.4609,4083.0334,4079.8695,relax,
4104.5254,4097.9102,4103.749,4102.7928,4099.8056,4103.1794,4091.4627,4098.5908,4100.0686,4107.1992,4097.8643,4105.0237,4101.8434,4098.0348,relax,
4115.4012,4106.2515,4112.9726,4117.5135,4101.5595,4102.3621,4104.7682,4103.287,4107.0736,4108.9324,4109.8195,4115.056,4112.6149,4120.9149,relax,
4125.2092,4118.1307,4119.8257,4117.3505,4111.8233,4112.7441,4107.9031,4115.5235,4113.9259,4107.7638,4114.2332,4117.0131,4111.589,4127.6695,relax,
4123.7871,4117.5382,4115.748,4118.884,4105.0525,4112.0494,4110.0717,4114.5562,4109.0587,4108.7336,4122.9813,4119.7914,4122.7856,4119.0098,relax,
4109.9105,4109.8598,4114.9886,4121.0289,4104.8238,4108.8272,4102.6157,4110.5026,4111.8983,4108.1207,4111.7182,4115.1619,4099.2091,4118.8444,relax,
4115.3213,4105.2053,4099.6157,4101.3199,4102.4112,4110.1751,4104.207,4104.5323,4102.2591,4100.0829,4105.3968,4116.1787,4101.3614,4103.5879,relax,
4099.7484,4101.8347,4095.6052,4091.9689,4090.3996,4099.6278,4091.2898,4098.66,4094.3949,4099.4444,4102.5498,4101.1228,4102.5648,4094.325,relax,
4085.2865,4092.8851,4081.8569,4094.0301,4085.9889,4090.9448,4093.5051,4087.6136,4093.021,4089.3023,4087.8873,4092.8173,4086.1219,4091.1918,relax,
4082.771,4088.4602,4075.7375,4086.0364,4088.9711,4084.9444,4083.3555,4082.7924,4089.1915,4089.1688,4087.5538,4080.0265,4079.6765,4069.0896,relax,
4070.4744,4077.4526,4069.6855,4074.7748,4083.7809,4083.5922,4083.0765,4075.1566,4078.6385,4076.3683,4081.7794,4067.8858,4076.7786,4075.111,relax,
4072.0031,4071.5818,4080.638,4071.93,4078.0513,4083.5399,4084.7575,4080.9334,4077.6404,4080.2452,4065.7575,4064.9994,4076.4511,4059.9713,relax,
4074.5204,4078.8041,4075.1763,4078.1883,4085.5616,4083.1443,4075.8786,4088.251,4085.3018,4083.5402,4076.8061,4070.823,4086.767,4076.2388,relax,
4093.4439,4092.2233,4089.793,4097.2841,4096.9792,4096.9844,4089.7388,4088.7714,4096.7417,4092.6402,4090.4504,4086.8997,4084.474,4094.1186,relax,
4105.7876,4100.4447,4103.5965,4098.7889,4099.4825,4098.1864,4102.4554,4102.4366,4101.0182,4109.426,4103.5162,4102.6461,4106.2321,4108.9449,relax,
4112.6992,4122.3244,4116.489,4110.5068,4114.4124,4112.1424,4114.8,4110.9879,4105.8639,4109.8722,4112.932,4119.0534,4108.2387,4119.8256,relax,
4120.3913,4113.9601,4114.3127,4113.0199,4114.617,4114.2495,4110.2209,4113.3107,4109.4452,4115.165,4119.014,4119.128,4115.8583,4118.6203,relax,
4115.9767,4117.548,4116.9951,4108.3075,4112.7876,4112.4986,4103.7522,4111.7893,4112.5669,4111.257,4112.7367,4122.2466,4115.9362,4125.466,relax,
4111.2669,4096.4469,4105.7864,4111.6146,4107.7761,4108.6129,4108.5006,4110.6347,4103.8656,4109.5764,4111.5752,4106.9455,4112.1454,4115.9128,relax,
4106.7699,4109.6962,4112.0172,4102.3981,4098.539,4103.027,4100.1152,4102.7847,4101.3854,4093.4759,4099.3246,4099.3237,4093.5391,4105.1487,relax,
4100.6496,4090.2352,4098.3765,4088.8595,4092.0527,4094.5339,4096.8428,4100.7549,4093.5025,4095.9865,4093.9102,4095.7283,4089.8138,4092.6553,relax,
4085.1295,4078.7183,4087.7436,4087.4095,4086.5697,4088.5163,4090.3289,4097.1346,4087.599,4083.9373,4087.8491,4092.5252,4085.7233,4085.8877,relax,
4073.1469,4076.1318,4080.765,4082.2661,4084.5893,4083.3736,4090.1469,4083.3755,4087.309,4084.9575,4076.3245,4075.8784,4074.5026,4078.1749,relax,
4071.6874,4070.5627,4071.237,4074.0278,4081.2423,4082.1149,4084.6231,4087.7307,4082.0087,4084.5118,4071.212,4070.7715,4075.2506,4069.5101,relax,
4076.0784,4069.3184,4075.3088,4082.6774,4076.5709,4077.9926,4089.6181,4082.9345,4077.1542,4077.123,4077.9869,4077.1084,4064.0545,4069.9573,relax,
